##NAMES=Dufrenoysite
##RRUFFID=R070579
##IDEAL CHEMISTRY=Pb^2+^_2_As^3+^_2_S^2-^_5_
##LOCALITY=Lengenbach Quarry, Imfeld, Binnental, Valais, Switzerland
##OWNER=RRUFF
##SOURCE=James Shigley
##DESCRIPTION=Lead gray metallic prismatic crystals associated with pyrite and dolomite
##STATUS=The identification of this mineral has been confirmed by X-ray diffraction and chemical analysis
##URL=rruff.info/R070579
##MEASURED CHEMISTRY=(Pb_1.71_Tl_0.08_Sb_0.04_Ag_0.03_)_Î£1.86_As_2.05_S_5.00
144.3446, 1836.637
144.8267, 1839.500
145.3088, 1829.064
145.7909, 1811.929
146.2730, 1807.295
146.7551, 1822.415
147.2373, 1857.296
147.7194, 1878.341
148.2015, 1880.406
148.6836, 1873.286
149.1657, 1866.250
149.6478, 1857.126
150.1300, 1850.822
150.6121, 1848.813
151.0942, 1852.635
151.5763, 1856.045
152.0584, 1860.734
152.5405, 1864.859
153.0227, 1865.257
153.5048, 1858.892
153.9869, 1851.402
154.4690, 1844.667
154.9511, 1838.647
155.4332, 1833.519
155.9154, 1831.818
156.3975, 1831.782
156.8796, 1826.205
157.3617, 1800.743
157.8438, 1777.151
158.3259, 1769.316
158.8080, 1800.792
159.2902, 1826.667
159.7723, 1833.393
160.2544, 1821.037
160.7365, 1809.964
161.2186, 1807.554
161.7007, 1808.813
162.1829, 1808.478
162.6650, 1803.241
163.1471, 1797.493
163.6292, 1793.317
164.1113, 1791.229
164.5934, 1789.080
165.0756, 1780.455
165.5577, 1771.396
166.0398, 1772.736
166.5219, 1809.027
167.0040, 1845.417
167.4861, 1854.773
167.9683, 1818.565
168.4504, 1780.652
168.9325, 1769.813
169.4146, 1779.683
169.8967, 1788.027
170.3788, 1777.300
170.8610, 1760.352
171.3431, 1751.239
171.8252, 1762.326
172.3073, 1775.026
172.7894, 1770.617
173.2715, 1750.619
173.7537, 1732.962
174.2358, 1732.554
174.7179, 1743.023
175.2000, 1753.425
175.6821, 1764.039
176.1642, 1770.391
176.6464, 1763.252
177.1285, 1740.725
177.6106, 1720.305
178.0927, 1721.821
178.5748, 1739.399
179.0569, 1755.946
179.5390, 1763.476
180.0212, 1764.342
180.5033, 1761.732
180.9854, 1755.203
181.4675, 1747.417
181.9496, 1740.037
182.4317, 1733.472
182.9139, 1730.940
183.3960, 1737.951
183.8781, 1750.732
184.3602, 1759.155
184.8423, 1761.200
185.3244, 1758.318
185.8066, 1751.300
186.2887, 1740.250
186.7708, 1729.607
187.2529, 1723.766
187.7350, 1721.880
188.2171, 1720.730
188.6993, 1720.468
189.1814, 1720.047
189.6635, 1714.525
190.1456, 1702.876
190.6277, 1693.204
191.1098, 1697.384
191.5920, 1714.196
192.0741, 1728.436
192.5562, 1735.482
193.0383, 1735.532
193.5204, 1726.870
194.0025, 1706.209
194.4847, 1685.792
194.9668, 1687.789
195.4489, 1713.129
195.9310, 1736.300
196.4131, 1742.010
196.8952, 1731.222
197.3774, 1726.196
197.8595, 1730.273
198.3416, 1737.689
198.8237, 1734.836
199.3058, 1720.302
199.7879, 1704.974
200.2701, 1693.922
200.7522, 1686.864
201.2343, 1690.003
201.7164, 1708.687
202.1985, 1735.965
202.6806, 1745.524
203.1628, 1733.447
203.6449, 1717.438
204.1270, 1713.455
204.6091, 1723.990
205.0912, 1729.727
205.5733, 1725.507
206.0555, 1712.795
206.5376, 1704.095
207.0197, 1700.293
207.5018, 1698.796
207.9839, 1696.454
208.4660, 1692.484
208.9482, 1691.216
209.4303, 1695.465
209.9124, 1705.572
210.3945, 1709.137
210.8766, 1704.076
211.3587, 1695.222
211.8409, 1688.705
212.3230, 1684.229
212.8051, 1682.891
213.2872, 1686.146
213.7693, 1695.348
214.2514, 1701.217
214.7336, 1702.556
215.2157, 1701.407
215.6978, 1701.967
216.1799, 1704.825
216.6620, 1707.972
217.1441, 1710.515
217.6263, 1712.231
218.1084, 1714.286
218.5905, 1718.369
219.0726, 1722.317
219.5547, 1718.476
220.0368, 1702.275
220.5190, 1686.219
221.0011, 1676.462
221.4832, 1672.328
221.9653, 1677.322
222.4474, 1697.355
222.9295, 1727.869
223.4117, 1741.690
223.8938, 1730.597
224.3759, 1714.586
224.8580, 1708.173
225.3401, 1716.434
225.8222, 1723.024
226.3043, 1725.223
226.7865, 1723.290
227.2686, 1722.430
227.7507, 1723.161
228.2328, 1724.386
228.7149, 1725.875
229.1970, 1730.736
229.6792, 1729.396
230.1613, 1717.309
230.6434, 1693.293
231.1255, 1676.564
231.6076, 1666.811
232.0897, 1664.872
232.5719, 1674.142
233.0540, 1706.122
233.5361, 1728.768
234.0182, 1731.668
234.5003, 1709.832
234.9824, 1694.040
235.4646, 1686.825
235.9467, 1684.069
236.4288, 1679.526
236.9109, 1671.766
237.3930, 1664.679
237.8751, 1659.459
238.3573, 1656.542
238.8394, 1654.340
239.3215, 1652.719
239.8036, 1651.905
240.2857, 1652.057
240.7678, 1651.881
241.2500, 1654.565
241.7321, 1662.233
242.2142, 1679.432
242.6963, 1690.706
243.1784, 1692.814
243.6605, 1689.537
244.1427, 1692.134
244.6248, 1707.075
245.1069, 1718.711
245.5890, 1718.375
246.0711, 1697.412
246.5532, 1682.849
247.0353, 1676.653
247.5175, 1677.489
247.9996, 1680.614
248.4817, 1688.211
248.9638, 1695.247
249.4459, 1698.997
249.9280, 1699.228
250.4102, 1696.731
250.8923, 1691.282
251.3744, 1683.031
251.8565, 1672.656
252.3386, 1656.481
252.8207, 1642.819
253.3029, 1638.272
253.7850, 1648.346
254.2671, 1655.776
254.7492, 1657.904
255.2313, 1655.245
255.7134, 1653.701
256.1956, 1655.592
256.6777, 1655.700
257.1598, 1649.018
257.6419, 1631.253
258.1240, 1615.879
258.6061, 1603.399
259.0883, 1593.965
259.5704, 1594.934
260.0525, 1611.763
260.5346, 1631.960
261.0167, 1643.770
261.4988, 1645.352
261.9810, 1642.910
262.4631, 1636.025
262.9452, 1624.515
263.4273, 1617.593
263.9094, 1615.901
264.3915, 1617.961
264.8737, 1623.052
265.3558, 1632.861
265.8379, 1641.254
266.3200, 1647.580
266.8021, 1652.070
267.2842, 1648.500
267.7664, 1630.815
268.2485, 1613.045
268.7306, 1615.632
269.2127, 1648.578
269.6948, 1671.011
270.1769, 1666.339
270.6591, 1632.175
271.1412, 1617.215
271.6233, 1628.063
272.1054, 1649.185
272.5875, 1660.199
273.0696, 1658.714
273.5518, 1655.274
274.0339, 1653.225
274.5160, 1652.736
274.9981, 1650.848
275.4802, 1647.556
275.9623, 1642.857
276.4445, 1636.281
276.9266, 1627.224
277.4087, 1619.117
277.8908, 1612.478
278.3729, 1607.128
278.8550, 1607.371
279.3372, 1614.766
279.8193, 1625.202
280.3014, 1632.176
280.7835, 1635.442
281.2656, 1637.485
281.7477, 1638.782
282.2298, 1639.292
282.7119, 1641.213
283.1941, 1644.865
283.6762, 1649.265
284.1583, 1652.092
284.6404, 1653.079
285.1225, 1655.930
285.6046, 1663.334
286.0868, 1674.928
286.5689, 1686.333
287.0510, 1698.954
287.5331, 1708.000
288.0152, 1702.521
288.4973, 1682.430
288.9795, 1663.508
289.4616, 1655.687
289.9437, 1656.930
290.4258, 1653.852
290.9079, 1644.590
291.3900, 1634.345
291.8722, 1632.638
292.3543, 1638.985
292.8364, 1644.323
293.3185, 1642.291
293.8006, 1635.065
294.2827, 1630.157
294.7649, 1627.349
295.2470, 1629.013
295.7291, 1644.097
296.2112, 1670.362
296.6933, 1688.754
297.1754, 1682.829
297.6576, 1661.677
298.1397, 1648.624
298.6218, 1646.167
299.1039, 1650.671
299.5860, 1661.925
300.0681, 1677.805
300.5503, 1689.087
301.0324, 1689.718
301.5145, 1682.288
301.9966, 1669.076
302.4787, 1647.999
302.9608, 1629.578
303.4430, 1629.636
303.9251, 1643.408
304.4072, 1655.072
304.8893, 1656.051
305.3714, 1649.909
305.8535, 1639.581
306.3357, 1623.723
306.8178, 1610.497
307.2999, 1610.495
307.7820, 1619.751
308.2641, 1627.855
308.7462, 1630.392
309.2284, 1628.561
309.7105, 1622.089
310.1926, 1609.528
310.6747, 1598.352
311.1568, 1596.480
311.6389, 1600.360
312.1211, 1602.336
312.6032, 1595.978
313.0853, 1587.856
313.5674, 1582.743
314.0495, 1581.324
314.5316, 1582.668
315.0138, 1586.779
315.4959, 1593.232
315.9780, 1601.240
316.4601, 1620.151
316.9422, 1633.558
317.4243, 1627.089
317.9065, 1592.640
318.3886, 1565.103
318.8707, 1565.965
319.3528, 1582.216
319.8349, 1593.418
320.3170, 1586.761
320.7992, 1578.173
321.2813, 1575.160
321.7634, 1579.985
322.2455, 1584.560
322.7276, 1585.766
323.2097, 1585.617
323.6919, 1586.941
324.1740, 1593.242
324.6561, 1598.574
325.1382, 1601.120
325.6203, 1600.684
326.1024, 1597.745
326.5845, 1587.838
327.0667, 1576.829
327.5488, 1572.002
328.0309, 1578.031
328.5130, 1586.643
328.9951, 1598.762
329.4772, 1618.432
329.9594, 1624.817
330.4415, 1604.213
330.9236, 1575.997
331.4057, 1561.905
331.8878, 1572.830
332.3699, 1584.376
332.8521, 1592.894
333.3342, 1598.632
333.8163, 1598.742
334.2984, 1589.649
334.7805, 1577.677
335.2626, 1569.584
335.7448, 1567.573
336.2269, 1565.322
336.7090, 1560.432
337.1911, 1552.849
337.6732, 1551.977
338.1553, 1562.310
338.6375, 1573.261
339.1196, 1572.361
339.6017, 1553.547
340.0838, 1543.621
340.5659, 1551.569
341.0480, 1574.369
341.5302, 1587.003
342.0123, 1588.296
342.4944, 1582.423
342.9765, 1568.302
343.4586, 1544.167
343.9407, 1533.888
344.4229, 1547.383
344.9050, 1576.625
345.3871, 1591.791
345.8692, 1591.670
346.3513, 1586.019
346.8334, 1581.955
347.3156, 1579.283
347.7977, 1576.366
348.2798, 1572.207
348.7619, 1568.270
349.2440, 1568.524
349.7261, 1572.868
350.2083, 1576.915
350.6904, 1575.995
351.1725, 1572.060
351.6546, 1571.180
352.1367, 1575.266
352.6188, 1581.331
353.1010, 1585.590
353.5831, 1588.218
354.0652, 1590.149
354.5473, 1591.907
355.0294, 1593.391
355.5115, 1594.354
355.9937, 1594.546
356.4758, 1594.729
356.9579, 1597.295
357.4400, 1600.732
357.9221, 1600.709
358.4042, 1589.748
358.8864, 1576.965
359.3685, 1570.792
359.8506, 1573.068
360.3327, 1579.576
360.8148, 1591.648
361.2969, 1605.920
361.7791, 1616.208
362.2612, 1620.632
362.7433, 1619.860
363.2254, 1611.614
363.7075, 1592.851
364.1896, 1579.925
364.6718, 1585.395
365.1539, 1598.025
365.6360, 1602.936
366.1181, 1584.643
366.6002, 1568.777
367.0823, 1566.185
367.5645, 1579.961
368.0466, 1589.255
368.5287, 1586.600
369.0108, 1579.787
369.4929, 1576.547
369.9750, 1581.385
370.4571, 1585.513
370.9392, 1587.500
371.4214, 1587.244
371.9035, 1586.384
372.3856, 1584.648
372.8677, 1582.456
373.3498, 1580.228
373.8319, 1578.788
374.3141, 1575.599
374.7962, 1568.726
375.2783, 1559.165
375.7604, 1556.263
376.2425, 1564.374
376.7246, 1571.633
377.2068, 1568.618
377.6889, 1552.236
378.1710, 1539.526
378.6531, 1533.492
379.1352, 1531.619
379.6173, 1525.107
380.0995, 1512.174
380.5816, 1502.967
381.0637, 1507.176
381.5458, 1524.150
382.0279, 1530.588
382.5100, 1522.208
382.9922, 1507.830
383.4743, 1504.397
383.9564, 1511.225
384.4385, 1514.095
384.9206, 1500.511
385.4027, 1477.173
385.8849, 1464.112
386.3670, 1463.839
386.8491, 1466.958
387.3312, 1461.299
387.8133, 1449.960
388.2954, 1442.305
388.7776, 1447.477
389.2597, 1456.362
389.7418, 1457.556
390.2239, 1450.548
390.7060, 1441.034
391.1881, 1427.980
391.6703, 1416.141
392.1524, 1412.618
392.6345, 1428.229
393.1166, 1446.222
393.5987, 1456.791
394.0808, 1460.162
394.5630, 1459.958
395.0451, 1456.054
395.5272, 1450.193
396.0093, 1443.879
396.4914, 1434.718
396.9735, 1428.164
397.4557, 1427.143
397.9378, 1430.457
398.4199, 1432.911
398.9020, 1433.031
399.3841, 1432.387
399.8662, 1431.969
400.3484, 1435.173
400.8305, 1433.645
401.3126, 1422.367
401.7947, 1406.449
402.2768, 1397.705
402.7589, 1402.408
403.2411, 1406.743
403.7232, 1405.061
404.2053, 1394.219
404.6874, 1389.496
405.1695, 1393.577
405.6516, 1401.305
406.1338, 1404.533
406.6159, 1400.822
407.0980, 1400.216
407.5801, 1407.716
408.0622, 1422.800
408.5443, 1429.063
409.0265, 1424.618
409.5086, 1417.854
409.9907, 1418.592
410.4728, 1426.730
410.9549, 1431.967
411.4370, 1431.202
411.9192, 1426.366
412.4013, 1422.153
412.8834, 1418.592
413.3655, 1415.232
413.8476, 1411.985
414.3297, 1408.706
414.8119, 1404.494
415.2939, 1398.154
415.7761, 1392.839
416.2582, 1393.527
416.7403, 1398.699
417.2224, 1402.768
417.7045, 1398.768
418.1866, 1393.921
418.6688, 1397.350
419.1509, 1412.461
419.6330, 1425.864
420.1151, 1429.477
420.5972, 1425.593
421.0793, 1417.898
421.5615, 1401.842
422.0436, 1387.300
422.5257, 1380.109
423.0078, 1381.199
423.4899, 1382.346
423.9720, 1378.908
424.4542, 1375.663
424.9363, 1376.991
425.4184, 1386.731
425.9005, 1397.655
426.3826, 1412.778
426.8647, 1430.957
427.3469, 1435.858
427.8290, 1412.845
428.3111, 1390.357
428.7932, 1386.143
429.2753, 1414.996
429.7574, 1429.478
430.2396, 1420.468
430.7217, 1398.345
431.2038, 1391.317
431.6859, 1404.343
432.1680, 1418.577
432.6501, 1427.088
433.1323, 1429.985
433.6144, 1422.430
434.0965, 1401.094
434.5786, 1377.597
435.0607, 1369.303
435.5428, 1375.695
436.0250, 1385.381
436.5071, 1396.845
436.9892, 1408.029
437.4713, 1413.999
437.9534, 1414.789
438.4355, 1410.512
438.9177, 1394.423
439.3998, 1373.830
439.8819, 1364.713
440.3640, 1376.468
440.8461, 1394.464
441.3282, 1406.375
441.8104, 1412.884
442.2925, 1416.688
442.7746, 1420.918
443.2567, 1422.148
443.7388, 1416.115
444.2209, 1398.401
444.7031, 1383.213
445.1852, 1375.440
445.6673, 1374.169
446.1494, 1377.868
446.6315, 1394.769
447.1136, 1408.626
447.5958, 1411.193
448.0779, 1398.672
448.5600, 1393.442
449.0421, 1407.130
449.5242, 1423.217
450.0063, 1427.163
450.4885, 1409.083
450.9706, 1394.128
451.4527, 1385.802
451.9348, 1383.469
452.4169, 1382.612
452.8990, 1383.850
453.3812, 1385.381
453.8633, 1384.375
454.3454, 1379.431
454.8275, 1384.619
455.3096, 1405.260
455.7917, 1430.211
456.2739, 1435.988
456.7560, 1422.733
457.2381, 1408.855
457.7202, 1405.830
458.2023, 1409.455
458.6844, 1404.333
459.1666, 1389.077
459.6487, 1374.185
460.1308, 1368.805
460.6129, 1371.443
461.0950, 1379.055
461.5771, 1397.322
462.0592, 1414.196
462.5414, 1416.205
463.0235, 1405.343
463.5056, 1394.273
463.9877, 1389.635
464.4698, 1388.169
464.9519, 1387.095
465.4341, 1385.231
465.9162, 1384.941
466.3983, 1387.997
466.8804, 1393.190
467.3625, 1397.930
467.8446, 1403.293
468.3268, 1406.752
468.8089, 1407.138
469.2910, 1403.784
469.7731, 1399.908
470.2552, 1395.656
470.7373, 1390.741
471.2195, 1383.736
471.7016, 1369.333
472.1837, 1365.053
472.6658, 1378.883
473.1479, 1405.693
473.6300, 1414.895
474.1122, 1402.118
474.5943, 1386.570
475.0764, 1381.468
475.5585, 1386.452
476.0406, 1392.167
476.5227, 1399.089
477.0049, 1403.416
477.4870, 1395.395
477.9691, 1377.419
478.4512, 1364.165
478.9333, 1368.236
479.4154, 1379.628
479.8976, 1379.238
480.3797, 1366.437
480.8618, 1357.495
481.3439, 1372.822
481.8260, 1397.479
482.3081, 1411.310
482.7903, 1398.692
483.2724, 1384.363
483.7545, 1381.404
484.2366, 1387.528
484.7187, 1394.493
485.2008, 1402.338
485.6830, 1407.983
486.1651, 1409.301
486.6472, 1403.539
487.1293, 1399.209
487.6114, 1399.539
488.0935, 1400.897
488.5757, 1398.300
489.0578, 1387.108
489.5399, 1379.092
490.0220, 1377.068
490.5041, 1380.912
490.9862, 1387.466
491.4684, 1399.773
491.9505, 1408.115
492.4326, 1400.195
492.9147, 1374.418
493.3968, 1362.787
493.8789, 1373.295
494.3611, 1392.995
494.8432, 1394.496
495.3253, 1379.448
495.8074, 1366.326
496.2895, 1369.337
496.7716, 1379.736
497.2538, 1378.187
497.7359, 1362.930
498.2180, 1350.136
498.7001, 1358.011
499.1822, 1376.267
499.6643, 1389.600
500.1465, 1389.933
500.6286, 1387.045
501.1107, 1384.127
501.5928, 1381.914
502.0749, 1383.533
502.5570, 1397.991
503.0392, 1410.773
503.5213, 1413.605
504.0034, 1401.599
504.4855, 1388.400
504.9676, 1372.628
505.4497, 1357.088
505.9318, 1345.342
506.4139, 1334.604
506.8961, 1332.804
507.3782, 1345.944
507.8603, 1372.351
508.3424, 1383.526
508.8245, 1374.693
509.3066, 1363.271
509.7888, 1363.560
510.2709, 1375.533
510.7530, 1386.231
511.2351, 1394.644
511.7172, 1399.762
512.1993, 1397.280
512.6815, 1388.758
513.1636, 1382.705
513.6457, 1386.683
514.1278, 1394.549
514.6099, 1396.926
515.0920, 1393.572
515.5742, 1388.959
516.0563, 1387.672
516.5384, 1386.365
517.0205, 1380.959
517.5026, 1365.379
517.9847, 1351.651
518.4669, 1342.833
518.9490, 1339.428
519.4311, 1342.759
519.9132, 1365.448
520.3953, 1384.133
520.8774, 1386.772
521.3596, 1365.489
521.8417, 1356.203
522.3238, 1364.639
522.8059, 1380.448
523.2880, 1393.614
523.7701, 1404.777
524.2523, 1411.400
524.7344, 1411.932
525.2165, 1407.960
525.6986, 1405.766
526.1807, 1405.661
526.6628, 1404.382
527.1450, 1397.372
527.6271, 1387.047
528.1092, 1384.088
528.5913, 1390.358
529.0734, 1398.310
529.5555, 1402.085
530.0377, 1401.331
530.5198, 1395.288
531.0019, 1375.112
531.4840, 1356.364
531.9661, 1352.701
532.4482, 1361.960
532.9304, 1371.314
533.4125, 1377.801
533.8946, 1380.595
534.3767, 1377.946
534.8588, 1363.884
535.3409, 1356.845
535.8231, 1363.060
536.3052, 1376.812
536.7873, 1390.255
537.2694, 1408.343
537.7515, 1418.528
538.2336, 1416.138
538.7158, 1402.451
539.1979, 1391.544
539.6800, 1383.876
540.1621, 1377.463
540.6442, 1369.375
541.1263, 1359.808
541.6085, 1358.458
542.0906, 1368.304
542.5727, 1380.735
543.0548, 1382.277
543.5369, 1375.349
544.0190, 1369.419
544.5012, 1369.662
544.9833, 1372.469
545.4654, 1373.715
545.9475, 1373.508
546.4296, 1373.337
546.9117, 1372.870
547.3939, 1373.476
547.8760, 1376.547
548.3581, 1383.754
548.8402, 1390.621
549.3223, 1398.960
549.8044, 1405.745
550.2866, 1405.455
550.7687, 1387.457
551.2508, 1374.374
551.7329, 1373.654
552.2150, 1384.882
552.6971, 1386.511
553.1793, 1373.730
553.6614, 1360.433
554.1435, 1357.956
554.6256, 1367.028
555.1077, 1372.954
555.5898, 1373.420
556.0720, 1372.837
556.5541, 1381.707
557.0362, 1397.566
557.5183, 1405.614
558.0004, 1388.987
558.4825, 1365.977
558.9647, 1367.677
559.4468, 1391.250
559.9289, 1409.594
560.4110, 1398.403
560.8931, 1377.538
561.3752, 1365.135
561.8574, 1367.378
562.3395, 1372.983
562.8216, 1382.976
563.3037, 1393.123
563.7858, 1396.590
564.2679, 1382.821
564.7501, 1373.081
565.2322, 1373.956
565.7143, 1384.332
566.1964, 1386.870
566.6785, 1377.853
567.1606, 1367.830
567.6428, 1362.518
568.1249, 1361.899
568.6070, 1367.711
569.0891, 1381.944
569.5712, 1397.869
570.0533, 1405.959
570.5355, 1407.164
571.0176, 1406.248
571.4997, 1404.858
571.9818, 1402.408
572.4639, 1396.392
572.9460, 1387.725
573.4281, 1381.820
573.9102, 1388.141
574.3923, 1394.714
574.8745, 1389.332
575.3566, 1364.371
575.8387, 1347.093
576.3208, 1352.122
576.8029, 1367.168
577.2850, 1377.082
577.7672, 1375.159
578.2493, 1375.181
578.7314, 1380.282
579.2135, 1388.870
579.6956, 1394.052
580.1777, 1396.367
580.6599, 1393.820
581.1420, 1381.688
581.6241, 1360.313
582.1062, 1351.008
582.5883, 1355.421
583.0704, 1364.202
583.5526, 1366.195
584.0347, 1363.935
584.5168, 1366.051
584.9989, 1378.552
585.4810, 1390.810
585.9631, 1388.715
586.4453, 1376.934
586.9274, 1369.034
587.4095, 1375.827
587.8916, 1384.950
588.3737, 1389.356
588.8558, 1388.015
589.3380, 1386.075
589.8201, 1382.301
590.3022, 1379.742
590.7843, 1381.173
591.2664, 1392.893
591.7485, 1395.823
592.2307, 1383.515
592.7128, 1365.605
593.1949, 1364.667
593.6770, 1383.685
594.1591, 1400.561
594.6412, 1407.787
595.1234, 1406.484
595.6055, 1398.035
596.0876, 1382.414
596.5697, 1368.440
597.0518, 1363.298
597.5339, 1364.102
598.0161, 1366.921
598.4982, 1371.875
598.9803, 1375.888
599.4624, 1376.664
599.9445, 1375.228
600.4266, 1373.078
600.9088, 1368.403
601.3909, 1365.433
601.8730, 1366.461
602.3551, 1370.853
602.8372, 1373.528
603.3193, 1372.135
603.8015, 1371.875
604.2836, 1376.534
604.7657, 1387.967
605.2478, 1389.929
605.7299, 1380.077
606.2120, 1366.393
606.6942, 1354.928
607.1763, 1346.247
607.6584, 1346.349
608.1405, 1360.369
608.6226, 1376.750
609.1047, 1376.538
609.5869, 1364.537
610.0690, 1356.326
610.5511, 1364.188
611.0332, 1376.058
611.5153, 1383.774
611.9974, 1387.016
612.4796, 1386.533
612.9617, 1377.651
613.4438, 1368.553
613.9259, 1365.038
614.4080, 1373.894
614.8901, 1377.604
615.3723, 1373.698
615.8544, 1366.296
616.3365, 1360.931
616.8186, 1357.275
617.3007, 1357.365
617.7828, 1364.107
618.2650, 1373.648
618.7471, 1371.082
619.2292, 1356.694
619.7113, 1345.234
620.1934, 1349.263
620.6755, 1361.427
621.1577, 1371.250
621.6398, 1378.155
622.1219, 1379.064
622.6040, 1365.052
623.0861, 1346.829
623.5682, 1335.899
624.0504, 1337.028
624.5325, 1343.231
625.0146, 1356.971
625.4967, 1374.259
625.9788, 1386.156
626.4609, 1390.151
626.9431, 1392.122
627.4252, 1393.347
627.9073, 1393.750
628.3894, 1391.961
628.8715, 1387.254
629.3536, 1383.241
629.8358, 1383.346
630.3179, 1386.627
630.8000, 1386.963
631.2821, 1383.248
631.7642, 1380.871
632.2463, 1387.809
632.7285, 1399.613
633.2106, 1408.176
633.6927, 1411.357
634.1748, 1410.203
634.6569, 1400.354
635.1390, 1386.294
635.6212, 1379.898
636.1033, 1392.200
636.5854, 1404.920
637.0675, 1413.631
637.5496, 1418.485
638.0317, 1413.957
638.5139, 1394.163
638.9960, 1374.662
639.4781, 1367.705
639.9602, 1374.375
640.4423, 1375.856
640.9244, 1369.611
641.4066, 1362.908
641.8887, 1369.303
642.3708, 1383.867
642.8529, 1388.264
643.3350, 1367.400
643.8171, 1345.789
644.2993, 1352.854
644.7814, 1379.588
645.2635, 1399.063
645.7456, 1391.583
646.2277, 1381.209
646.7098, 1381.631
647.1920, 1395.457
647.6741, 1399.926
648.1562, 1382.211
648.6383, 1366.559
649.1204, 1370.855
649.6025, 1405.317
650.0847, 1420.742
650.5668, 1411.289
651.0489, 1391.526
651.5310, 1380.704
652.0131, 1378.076
652.4952, 1379.341
652.9774, 1385.696
653.4595, 1392.073
653.9416, 1388.670
654.4237, 1378.632
654.9058, 1372.536
655.3879, 1378.947
655.8701, 1388.682
656.3522, 1398.341
656.8343, 1407.869
657.3164, 1409.582
657.7985, 1394.217
658.2806, 1376.156
658.7628, 1363.388
659.2449, 1356.265
659.7270, 1353.967
660.2091, 1357.952
660.6912, 1364.684
661.1733, 1370.738
661.6555, 1376.123
662.1375, 1376.808
662.6196, 1369.593
663.1017, 1360.692
663.5839, 1360.886
664.0660, 1368.556
664.5481, 1377.688
665.0302, 1389.102
665.5123, 1397.749
665.9944, 1399.388
666.4766, 1394.075
666.9587, 1385.197
667.4408, 1364.007
667.9229, 1346.995
668.4050, 1346.279
668.8871, 1369.836
669.3693, 1385.477
669.8514, 1392.262
670.3335, 1392.284
670.8156, 1386.057
671.2977, 1372.885
671.7798, 1361.208
672.2620, 1351.465
672.7441, 1345.865
673.2262, 1351.338
673.7083, 1365.197
674.1904, 1376.610
674.6725, 1380.978
675.1547, 1380.418
675.6368, 1373.442
676.1189, 1361.827
676.6010, 1354.638
677.0831, 1358.584
677.5652, 1365.339
678.0474, 1371.506
678.5295, 1377.559
679.0116, 1378.623
679.4937, 1369.771
679.9758, 1361.904
680.4579, 1365.812
680.9401, 1383.710
681.4222, 1394.597
681.9043, 1395.566
682.3864, 1391.712
682.8685, 1388.322
683.3506, 1385.914
683.8328, 1386.883
684.3149, 1395.994
684.7970, 1404.089
685.2791, 1400.287
685.7612, 1388.354
686.2433, 1378.894
686.7255, 1376.708
687.2076, 1377.452
687.6897, 1379.824
688.1718, 1383.824
688.6539, 1388.346
689.1360, 1394.873
689.6182, 1399.819
690.1003, 1402.009
690.5824, 1401.855
691.0645, 1392.250
691.5466, 1370.362
692.0287, 1350.410
692.5109, 1352.858
692.9930, 1370.575
693.4751, 1381.937
693.9572, 1380.319
694.4393, 1375.535
694.9214, 1375.865
695.4036, 1378.987
695.8857, 1380.889
696.3678, 1379.416
696.8499, 1377.288
697.3320, 1372.838
697.8141, 1367.790
698.2963, 1371.024
698.7784, 1390.144
699.2605, 1403.979
699.7426, 1402.635
700.2247, 1387.354
700.7068, 1378.222
701.1890, 1375.640
701.6711, 1375.708
702.1532, 1376.426
702.6353, 1377.351
703.1174, 1375.960
703.5995, 1371.117
704.0817, 1371.046
704.5638, 1389.792
705.0459, 1413.147
705.5280, 1425.682
706.0101, 1418.020
706.4922, 1407.180
706.9744, 1392.015
707.4565, 1376.736
707.9386, 1368.525
708.4207, 1370.548
708.9028, 1371.993
709.3849, 1370.245
709.8671, 1366.517
710.3492, 1363.115
710.8313, 1360.145
711.3134, 1361.741
711.7955, 1377.719
712.2776, 1396.141
712.7598, 1392.802
713.2419, 1370.187
713.7240, 1356.005
714.2061, 1379.625
714.6882, 1407.579
715.1703, 1414.103
715.6525, 1386.795
716.1346, 1371.537
716.6167, 1380.076
717.0988, 1394.552
717.5809, 1400.279
718.0630, 1393.755
718.5452, 1396.051
719.0273, 1412.598
719.5094, 1429.811
719.9915, 1424.693
720.4736, 1401.976
720.9557, 1382.895
721.4379, 1374.907
721.9200, 1371.833
722.4021, 1369.375
722.8842, 1367.224
723.3663, 1364.669
723.8484, 1355.279
724.3306, 1351.577
724.8127, 1363.689
725.2948, 1389.424
725.7769, 1401.443
726.2590, 1394.024
726.7411, 1382.792
727.2233, 1373.298
727.7054, 1365.649
728.1875, 1362.403
728.6696, 1363.694
729.1517, 1368.430
729.6339, 1377.296
730.1160, 1388.591
730.5981, 1400.785
731.0802, 1414.859
731.5623, 1421.914
732.0444, 1409.596
732.5266, 1390.456
733.0087, 1377.280
733.4908, 1375.969
733.9729, 1376.673
734.4550, 1381.461
734.9371, 1386.191
735.4193, 1382.433
735.9014, 1366.138
736.3835, 1360.491
736.8656, 1374.936
737.3477, 1397.447
737.8298, 1400.355
738.3120, 1386.720
738.7941, 1373.287
739.2762, 1368.100
739.7583, 1367.232
740.2404, 1366.587
740.7225, 1366.719
741.2047, 1370.783
741.6868, 1385.711
742.1689, 1399.634
742.6510, 1406.607
743.1331, 1406.267
743.6152, 1404.967
744.0974, 1402.158
744.5795, 1399.510
745.0616, 1397.900
745.5437, 1397.370
746.0258, 1399.974
746.5079, 1406.628
746.9901, 1409.735
747.4722, 1396.688
747.9543, 1376.685
748.4364, 1363.837
748.9185, 1362.309
749.4006, 1365.295
749.8828, 1372.106
750.3649, 1380.578
750.8470, 1388.088
751.3291, 1396.263
751.8112, 1399.899
752.2933, 1395.952
752.7754, 1389.069
753.2575, 1391.106
753.7396, 1403.085
754.2217, 1407.534
754.7039, 1395.444
755.1860, 1376.273
755.6681, 1364.944
756.1502, 1361.156
756.6323, 1363.746
757.1144, 1378.156
757.5966, 1393.599
758.0787, 1404.105
758.5608, 1409.449
759.0429, 1410.323
759.5250, 1402.114
760.0071, 1394.591
760.4893, 1392.308
760.9714, 1395.635
761.4535, 1393.703
761.9356, 1385.325
762.4177, 1377.342
762.8998, 1377.434
763.3820, 1382.161
763.8641, 1379.083
764.3462, 1366.185
764.8283, 1359.432
765.3104, 1381.493
765.7925, 1410.649
766.2747, 1423.327
766.7568, 1404.943
767.2389, 1390.228
767.7210, 1387.334
768.2031, 1389.576
768.6852, 1390.570
769.1674, 1389.755
769.6495, 1389.801
770.1316, 1391.322
770.6137, 1393.290
771.0958, 1393.738
771.5779, 1393.085
772.0601, 1393.352
772.5422, 1396.870
773.0243, 1399.352
773.5064, 1395.244
773.9885, 1387.184
774.4706, 1381.372
774.9528, 1379.947
775.4349, 1380.914
775.9170, 1385.627
776.3991, 1392.498
776.8812, 1394.259
777.3633, 1388.766
777.8455, 1384.854
778.3276, 1387.328
778.8097, 1393.937
779.2918, 1397.653
779.7739, 1398.358
780.2560, 1394.722
780.7382, 1377.792
781.2203, 1361.317
781.7024, 1362.565
782.1845, 1382.391
782.6666, 1396.602
783.1487, 1392.141
783.6309, 1383.853
784.1130, 1379.592
784.5951, 1379.806
785.0772, 1382.921
785.5593, 1390.801
786.0414, 1396.917
786.5236, 1393.334
787.0057, 1382.565
787.4878, 1376.791
787.9699, 1377.787
788.4520, 1379.811
788.9341, 1377.432
789.4163, 1373.319
789.8984, 1370.237
790.3805, 1367.192
790.8626, 1368.571
791.3447, 1381.631
791.8268, 1396.330
792.3090, 1400.402
792.7911, 1387.894
793.2732, 1384.174
793.7553, 1394.339
794.2374, 1410.496
794.7195, 1422.607
795.2017, 1429.978
795.6838, 1427.981
796.1659, 1409.331
796.6480, 1389.865
797.1301, 1384.316
797.6122, 1388.534
798.0944, 1394.553
798.5765, 1403.741
799.0586, 1410.034
799.5407, 1411.479
800.0228, 1409.158
800.5049, 1405.633
800.9871, 1400.502
801.4692, 1395.908
801.9513, 1391.599
802.4334, 1389.017
802.9155, 1395.083
803.3976, 1407.738
803.8798, 1415.557
804.3619, 1405.560
804.8440, 1393.489
805.3261, 1392.693
805.8082, 1402.194
806.2903, 1408.579
806.7725, 1406.984
807.2546, 1403.598
807.7367, 1399.585
808.2188, 1395.036
808.7009, 1394.308
809.1830, 1398.111
809.6652, 1401.307
810.1473, 1399.186
810.6294, 1394.185
811.1115, 1391.672
811.5936, 1391.838
812.0757, 1393.436
812.5579, 1397.568
813.0400, 1401.467
813.5221, 1402.654
814.0042, 1399.812
814.4863, 1398.815
814.9684, 1401.586
815.4506, 1404.164
815.9327, 1403.556
816.4148, 1399.616
816.8969, 1394.695
817.3790, 1388.160
817.8611, 1385.355
818.3433, 1397.211
818.8254, 1414.607
819.3075, 1421.038
819.7896, 1410.547
820.2717, 1401.861
820.7538, 1407.569
821.2360, 1417.104
821.7181, 1419.795
822.2002, 1410.291
822.6823, 1404.072
823.1644, 1401.785
823.6465, 1402.067
824.1287, 1405.149
824.6108, 1410.230
825.0929, 1408.737
825.5750, 1396.771
826.0571, 1386.695
826.5392, 1396.046
827.0214, 1414.022
827.5035, 1423.937
827.9856, 1415.843
828.4677, 1407.043
828.9498, 1398.048
829.4319, 1392.037
829.9141, 1394.897
830.3962, 1410.643
830.8783, 1419.790
831.3604, 1417.931
831.8425, 1410.559
832.3246, 1405.050
832.8068, 1401.459
833.2889, 1399.785
833.7710, 1399.798
834.2531, 1402.100
834.7352, 1411.571
835.2173, 1422.911
835.6995, 1426.191
836.1816, 1409.322
836.6637, 1397.079
837.1458, 1393.315
837.6279, 1395.610
838.1100, 1399.095
838.5922, 1403.846
839.0743, 1408.432
839.5564, 1413.424
840.0385, 1416.667
840.5206, 1413.068
841.0027, 1404.996
841.4848, 1398.712
841.9669, 1394.210
842.4490, 1394.897
842.9312, 1406.941
843.4133, 1425.720
843.8954, 1435.207
844.3775, 1432.720
844.8596, 1427.060
845.3417, 1418.844
845.8239, 1410.442
846.3060, 1409.748
846.7881, 1415.678
847.2702, 1421.415
847.7523, 1422.773
848.2344, 1423.089
848.7166, 1426.535
849.1987, 1431.576
849.6808, 1432.540
850.1629, 1422.088
850.6450, 1414.056
851.1271, 1412.352
851.6093, 1415.753
852.0914, 1419.500
852.5735, 1423.812
853.0556, 1426.305
853.5377, 1426.530
854.0198, 1423.821
854.5020, 1413.599
854.9841, 1398.508
855.4662, 1389.080
855.9483, 1396.519
856.4304, 1405.135
856.9125, 1405.044
857.3947, 1397.840
857.8768, 1400.608
858.3589, 1418.860
858.8410, 1433.616
859.3231, 1435.861
859.8052, 1429.710
860.2874, 1431.927
860.7695, 1441.232
861.2516, 1446.459
861.7337, 1436.365
862.2158, 1423.196
862.6979, 1417.775
863.1801, 1419.070
863.6622, 1417.918
864.1443, 1406.352
864.6264, 1398.739
865.1085, 1400.300
865.5906, 1409.589
866.0728, 1416.932
866.5549, 1422.282
867.0370, 1427.373
867.5191, 1435.457
868.0012, 1442.716
868.4833, 1442.383
868.9655, 1435.507
869.4476, 1427.671
869.9297, 1418.787
870.4118, 1411.915
870.8939, 1407.650
871.3760, 1406.218
871.8582, 1412.269
872.3403, 1429.460
872.8224, 1442.115
873.3045, 1440.696
873.7866, 1430.685
874.2687, 1428.045
874.7509, 1431.555
875.2330, 1434.177
875.7151, 1430.931
876.1972, 1426.179
876.6793, 1422.610
877.1614, 1420.169
877.6436, 1417.738
878.1257, 1413.991
878.6078, 1412.254
879.0899, 1414.172
879.5720, 1418.872
880.0541, 1424.154
880.5363, 1429.707
881.0184, 1429.602
881.5005, 1412.328
881.9826, 1393.884
882.4647, 1393.118
882.9468, 1406.428
883.4290, 1417.802
883.9111, 1418.831
884.3932, 1421.066
884.8753, 1430.161
885.3574, 1443.197
885.8395, 1444.929
886.3217, 1434.027
886.8038, 1424.617
887.2859, 1422.270
887.7680, 1425.527
888.2501, 1436.247
888.7322, 1451.104
889.2144, 1459.310
889.6965, 1450.357
890.1786, 1439.519
890.6607, 1433.285
891.1428, 1430.349
891.6249, 1424.816
892.1071, 1414.754
892.5892, 1408.531
893.0713, 1408.254
893.5534, 1413.904
894.0355, 1431.989
894.5176, 1457.398
894.9998, 1471.624
895.4819, 1452.866
895.9640, 1433.152
896.4461, 1432.404
896.9282, 1444.259
897.4103, 1450.212
897.8925, 1445.629
898.3746, 1442.062
898.8567, 1441.754
899.3388, 1443.591
899.8209, 1446.395
900.3030, 1449.527
900.7852, 1449.168
901.2673, 1441.983
901.7494, 1433.698
902.2315, 1430.342
902.7136, 1429.123
903.1957, 1425.000
903.6779, 1410.152
904.1600, 1401.463
904.6421, 1401.706
905.1242, 1407.969
905.6063, 1417.133
906.0884, 1428.872
906.5706, 1435.755
907.0527, 1434.588
907.5348, 1431.352
908.0169, 1430.894
908.4990, 1433.159
908.9811, 1438.102
909.4633, 1448.676
909.9454, 1457.905
910.4275, 1468.940
910.9096, 1474.965
911.3917, 1462.894
911.8738, 1430.225
912.3560, 1416.716
912.8381, 1430.809
913.3202, 1451.933
913.8023, 1457.288
914.2844, 1453.177
914.7665, 1448.385
915.2487, 1442.364
915.7308, 1442.724
916.2129, 1464.196
916.6950, 1484.214
917.1771, 1481.036
917.6592, 1446.436
918.1414, 1429.053
918.6235, 1432.631
919.1056, 1442.997
919.5877, 1448.745
920.0698, 1450.417
920.5519, 1446.910
921.0341, 1437.194
921.5162, 1432.052
921.9983, 1444.377
922.4804, 1456.698
922.9625, 1455.358
923.4446, 1436.503
923.9268, 1431.092
924.4089, 1441.841
924.8910, 1454.901
925.3731, 1460.288
925.8552, 1460.257
926.3373, 1458.805
926.8195, 1456.305
927.3016, 1455.017
927.7837, 1457.891
928.2658, 1460.846
928.7479, 1461.083
929.2300, 1458.668
929.7122, 1457.075
930.1943, 1456.533
930.6764, 1455.900
931.1584, 1435.398
931.6406, 1457.678
932.1227, 1470.384
932.6048, 1474.030
933.0869, 1441.484
933.5690, 1455.674
934.0511, 1451.134
934.5333, 1445.826
935.0154, 1466.593
935.4975, 1439.312
935.9796, 1459.665
936.4617, 1461.004
936.9438, 1471.045
937.4260, 1462.242
937.9081, 1459.259
938.3902, 1475.126
938.8723, 1480.557
939.3544, 1469.583
939.8365, 1480.178
940.3187, 1452.238
940.8008, 1458.113
941.2829, 1478.577
941.7650, 1468.551
942.2471, 1479.490
942.7292, 1482.445
943.2114, 1449.113
943.6935, 1478.887
944.1756, 1481.370
944.6577, 1455.830
945.1398, 1483.442
945.6219, 1461.766
946.1041, 1457.682
946.5862, 1466.839
947.0683, 1462.193
947.5504, 1479.307
948.0325, 1475.459
948.5146, 1469.737
948.9968, 1472.189
949.4789, 1451.480
949.9610, 1473.740
950.4431, 1466.648
950.9252, 1474.146
951.4073, 1484.952
951.8895, 1470.435
952.3716, 1482.726
952.8537, 1453.445
953.3358, 1458.949
953.8179, 1460.707
954.3000, 1484.699
954.7822, 1455.621
955.2643, 1460.158
955.7464, 1479.009
956.2285, 1477.832
956.7106, 1485.029
957.1927, 1467.436
957.6749, 1473.131
958.1570, 1472.407
958.6391, 1493.865
959.1212, 1497.811
959.6033, 1480.639
960.0854, 1463.557
960.5676, 1486.610
961.0497, 1471.623
961.5318, 1477.158
962.0139, 1461.497
962.4960, 1464.137
962.9781, 1466.487
963.4603, 1478.219
963.9424, 1461.503
964.4245, 1481.688
964.9066, 1484.375
965.3887, 1488.407
965.8708, 1495.501
966.3530, 1495.364
966.8351, 1484.676
967.3172, 1471.484
967.7993, 1464.098
968.2814, 1462.211
968.7635, 1466.027
969.2457, 1477.617
969.7278, 1488.255
970.2099, 1497.721
970.6920, 1502.290
971.1741, 1498.131
971.6563, 1482.689
972.1384, 1471.433
972.6205, 1464.129
973.1026, 1461.981
973.5847, 1469.995
974.0668, 1481.705
974.5490, 1489.026
975.0311, 1491.240
975.5132, 1488.797
975.9953, 1474.420
976.4774, 1463.463
976.9595, 1463.996
977.4417, 1473.891
977.9238, 1474.178
978.4059, 1464.727
978.8880, 1459.862
979.3701, 1470.709
979.8522, 1486.715
980.3344, 1498.696
980.8165, 1506.150
981.2986, 1507.397
981.7807, 1494.313
982.2628, 1484.781
982.7449, 1482.242
983.2271, 1484.023
983.7092, 1484.808
984.1913, 1484.922
984.6734, 1489.351
985.1555, 1501.187
985.6376, 1511.476
986.1198, 1512.059
986.6019, 1506.515
987.0840, 1498.672
987.5661, 1485.358
988.0482, 1477.605
988.5303, 1475.870
989.0125, 1479.105
989.4946, 1490.744
989.9767, 1507.272
990.4588, 1510.102
990.9409, 1498.393
991.4230, 1485.529
991.9052, 1476.562
992.3873, 1473.131
992.8694, 1479.943
993.3515, 1497.057
993.8336, 1503.261
994.3157, 1494.644
994.7979, 1487.397
995.2800, 1489.422
995.7621, 1496.813
996.2442, 1502.287
996.7263, 1505.262
997.2084, 1503.822
997.6906, 1488.696
998.1727, 1478.367
998.6548, 1485.458
999.1369, 1500.207
999.6190, 1503.851
1000.101, 1493.289
1000.583, 1492.854
1001.065, 1510.178
1001.547, 1525.980
1002.030, 1506.709
1002.512, 1473.129
1002.994, 1458.637
1003.476, 1476.481
1003.958, 1494.655
1004.440, 1507.760
1004.922, 1516.106
1005.404, 1519.158
1005.887, 1516.817
1006.369, 1512.140
1006.851, 1505.118
1007.333, 1499.563
1007.815, 1498.181
1008.297, 1499.827
1008.779, 1504.237
1009.261, 1511.104
1009.743, 1518.795
1010.226, 1532.160
1010.708, 1536.649
1011.190, 1525.012
1011.672, 1504.747
1012.154, 1493.795
1012.636, 1490.753
1013.118, 1490.401
1013.600, 1492.020
1014.083, 1493.735
1014.565, 1495.621
1015.047, 1496.361
1015.529, 1493.404
1016.011, 1483.746
1016.493, 1480.470
1016.975, 1485.161
1017.457, 1493.463
1017.939, 1503.809
1018.422, 1513.431
1018.904, 1515.925
1019.386, 1510.266
1019.868, 1505.365
1020.350, 1502.886
1020.832, 1504.314
1021.314, 1512.051
1021.796, 1525.056
1022.278, 1531.565
1022.761, 1531.554
1023.243, 1527.066
1023.725, 1512.791
1024.207, 1500.006
1024.689, 1503.011
1025.171, 1516.473
1025.653, 1526.407
1026.135, 1528.260
1026.618, 1528.524
1027.100, 1527.221
1027.582, 1525.661
1028.064, 1528.077
1028.546, 1532.274
1029.028, 1527.983
1029.510, 1510.910
1029.992, 1496.506
1030.474, 1493.759
1030.957, 1498.708
1031.439, 1511.819
1031.921, 1536.809
1032.403, 1537.381
1032.885, 1508.004
1033.367, 1483.091
1033.849, 1494.976
1034.331, 1521.696
1034.813, 1523.615
1035.296, 1506.307
1035.778, 1498.340
1036.260, 1522.177
1036.742, 1542.201
1037.224, 1548.145
1037.706, 1545.599
1038.188, 1548.752
1038.670, 1556.662
1039.153, 1556.274
1039.635, 1541.907
1040.117, 1525.939
1040.599, 1516.382
1041.081, 1512.542
1041.563, 1514.469
1042.045, 1526.709
1042.527, 1530.281
1043.010, 1521.211
1043.492, 1513.954
1043.974, 1527.022
1044.456, 1548.849
1044.938, 1544.755
1045.420, 1517.771
1045.902, 1499.635
1046.384, 1515.926
1046.866, 1533.037
1047.349, 1536.063
1047.831, 1529.715
1048.313, 1528.854
1048.795, 1533.655
1049.277, 1535.711
1049.759, 1531.461
1050.241, 1526.129
1050.723, 1523.340
1051.205, 1523.825
1051.688, 1528.883
1052.170, 1543.135
1052.652, 1553.912
1053.134, 1561.364
1053.616, 1564.713
1054.098, 1562.086
1054.580, 1554.847
1055.062, 1545.998
1055.545, 1535.997
1056.027, 1530.140
1056.509, 1536.879
1056.991, 1542.872
1057.473, 1538.584
1057.955, 1528.058
1058.437, 1526.654
1058.919, 1535.316
1059.401, 1542.512
1059.884, 1545.066
1060.366, 1543.918
1060.848, 1536.617
1061.330, 1527.669
1061.812, 1523.855
1062.294, 1530.171
1062.776, 1535.322
1063.258, 1538.538
1063.740, 1541.010
1064.223, 1546.084
1064.705, 1551.350
1065.187, 1543.123
1065.669, 1522.521
1066.151, 1508.941
1066.633, 1521.609
1067.115, 1536.704
1067.597, 1539.477
1068.079, 1534.990
1068.562, 1542.704
1069.044, 1564.658
1069.526, 1574.266
1070.008, 1558.630
1070.490, 1539.894
1070.972, 1550.223
1071.454, 1572.483
1071.936, 1583.014
1072.419, 1571.288
1072.901, 1556.909
1073.383, 1536.566
1073.865, 1521.820
1074.347, 1527.581
1074.829, 1546.207
1075.311, 1546.785
1075.793, 1531.404
1076.276, 1522.885
1076.758, 1544.239
1077.240, 1563.732
1077.722, 1562.518
1078.204, 1549.951
1078.686, 1550.648
1079.168, 1565.431
1079.650, 1575.305
1080.132, 1575.800
1080.615, 1570.125
1081.097, 1554.281
1081.579, 1537.973
1082.061, 1534.034
1082.543, 1549.643
1083.025, 1565.103
1083.507, 1583.860
1083.989, 1594.221
1084.471, 1581.461
1084.954, 1556.239
1085.436, 1546.946
1085.918, 1551.333
1086.400, 1558.516
1086.882, 1566.897
1087.364, 1573.335
1087.846, 1578.639
1088.328, 1580.466
1088.811, 1570.335
1089.293, 1549.169
1089.775, 1540.650
1090.257, 1550.496
1090.739, 1563.820
1091.221, 1569.451
1091.703, 1571.616
1092.185, 1575.296
1092.667, 1581.987
1093.150, 1577.634
1093.632, 1558.377
1094.114, 1544.338
1094.596, 1548.488
1095.078, 1562.841
1095.560, 1577.934
1096.042, 1591.886
1096.524, 1599.228
1097.006, 1589.790
1097.489, 1585.667
1097.971, 1591.291
1098.453, 1600.916
1098.935, 1609.663
1099.417, 1616.372
1099.899, 1613.896
1100.381, 1601.178
1100.863, 1589.327
1101.346, 1588.763
1101.828, 1588.250
1102.310, 1577.906
1102.792, 1560.411
1103.274, 1555.864
1103.756, 1564.772
1104.238, 1578.373
1104.720, 1597.856
1105.203, 1612.674
1105.685, 1607.675
1106.167, 1591.619
1106.649, 1577.174
1107.131, 1563.116
1107.613, 1559.564
1108.095, 1569.998
1108.577, 1581.519
1109.059, 1581.834
1109.542, 1575.521
1110.024, 1570.305
1110.506, 1567.016
1110.988, 1568.891
1111.470, 1585.779
1111.952, 1597.211
1112.434, 1596.413
1112.916, 1588.207
1113.398, 1582.049
1113.881, 1577.922
1114.363, 1575.926
1114.845, 1576.073
1115.327, 1578.521
1115.809, 1588.621
1116.291, 1596.958
1116.773, 1594.052
1117.255, 1579.008
1117.738, 1571.689
1118.220, 1572.407
1118.702, 1576.215
1119.184, 1584.066
1119.666, 1590.195
1120.148, 1584.485
1120.630, 1572.778
1121.112, 1569.574
1121.594, 1586.466
1122.077, 1589.727
1122.559, 1571.547
1123.041, 1553.412
1123.523, 1567.860
1124.005, 1596.887
1124.487, 1602.471
1124.969, 1581.279
1125.451, 1567.524
1125.933, 1584.752
1126.416, 1597.220
1126.898, 1590.974
1127.380, 1574.407
1127.862, 1571.783
1128.344, 1580.745
1128.826, 1591.603
1129.308, 1604.121
1129.790, 1611.057
1130.273, 1603.725
1130.755, 1592.501
1131.237, 1586.664
1131.719, 1586.588
1132.201, 1588.735
1132.683, 1593.169
1133.165, 1596.132
1133.647, 1589.055
1134.130, 1584.896
1134.612, 1601.229
1135.094, 1629.142
1135.576, 1639.916
1136.058, 1626.645
1136.540, 1616.633
1137.022, 1614.448
1137.504, 1613.114
1137.986, 1602.298
1138.469, 1588.238
1138.951, 1579.288
1139.433, 1576.789
1139.915, 1577.011
1140.397, 1579.897
1140.879, 1584.302
1141.361, 1591.111
1141.843, 1597.932
1142.325, 1598.273
1142.808, 1594.061
1143.290, 1590.309
1143.772, 1587.568
1144.254, 1587.883
1144.736, 1593.318
1145.218, 1600.390
1145.700, 1608.410
1146.182, 1616.649
1146.665, 1612.752
1147.147, 1598.098
1147.629, 1588.045
1148.111, 1600.865
1148.593, 1611.627
1149.075, 1600.166
1149.557, 1580.364
1150.039, 1581.373
1150.521, 1604.515
1151.004, 1618.436
1151.486, 1617.723
1151.968, 1610.427
1152.450, 1596.878
1152.932, 1585.062
1153.414, 1582.682
1153.896, 1590.298
1154.378, 1602.338
1154.860, 1620.812
1155.343, 1632.487
1155.825, 1630.194
1156.307, 1621.970
1156.789, 1615.534
1157.271, 1611.365
1157.753, 1610.433
1158.235, 1616.772
1158.717, 1618.109
1159.199, 1612.583
1159.682, 1606.938
1160.164, 1606.207
1160.646, 1608.933
1161.128, 1614.004
1161.610, 1620.215
1162.092, 1622.901
1162.574, 1616.538
1163.056, 1611.521
1163.539, 1609.199
1164.021, 1609.340
1164.503, 1613.601
1164.985, 1619.956
1165.467, 1620.639
1165.949, 1614.460
1166.431, 1611.688
1166.913, 1623.530
1167.396, 1632.443
1167.878, 1629.380
1168.360, 1619.052
1168.842, 1619.143
1169.324, 1627.417
1169.806, 1630.014
1170.288, 1620.238
1170.770, 1610.483
1171.252, 1604.369
1171.734, 1604.553
1172.217, 1615.578
1172.699, 1637.839
1173.181, 1640.930
1173.663, 1625.563
1174.145, 1616.831
1174.627, 1640.506
1175.109, 1664.591
1175.591, 1666.306
1176.074, 1653.358
1176.556, 1640.349
1177.038, 1626.479
1177.520, 1619.112
1178.002, 1619.172
1178.484, 1621.605
1178.966, 1622.892
1179.448, 1623.752
1179.931, 1623.902
1180.413, 1623.962
1180.895, 1628.107
1181.377, 1638.374
1181.859, 1644.214
1182.341, 1642.456
1182.823, 1637.743
1183.305, 1635.584
1183.787, 1634.106
1184.270, 1629.715
1184.752, 1620.588
1185.234, 1618.511
1185.716, 1625.355
1186.198, 1635.238
1186.680, 1649.381
1187.162, 1660.604
1187.644, 1648.739
1188.126, 1625.870
1188.609, 1616.034
1189.091, 1637.708
1189.573, 1650.163
1190.055, 1646.570
1190.537, 1643.540
1191.019, 1663.091
1191.501, 1690.043
1191.983, 1679.764
1192.466, 1640.972
1192.948, 1611.799
1193.430, 1609.224
1193.912, 1616.051
1194.394, 1634.263
1194.876, 1652.509
1195.358, 1654.074
1195.840, 1643.851
1196.323, 1633.060
1196.805, 1623.077
1197.287, 1620.974
1197.769, 1641.601
1198.251, 1656.070
1198.733, 1653.521
1199.215, 1640.568
1199.697, 1630.035
1200.179, 1622.420
1200.661, 1620.068
1201.144, 1624.117
1201.626, 1630.652
1202.108, 1639.782
1202.590, 1649.175
1203.072, 1659.918
1203.554, 1669.607
1204.036, 1661.641
1204.518, 1639.543
1205.001, 1620.917
1205.483, 1611.326
1205.965, 1609.941
1206.447, 1621.564
1206.929, 1637.529
1207.411, 1652.266
1207.893, 1665.704
1208.375, 1672.505
1208.858, 1672.971
1209.340, 1670.123
1209.822, 1665.087
1210.304, 1657.942
1210.786, 1644.517
1211.268, 1631.328
1211.750, 1628.085
1212.232, 1634.586
1212.714, 1642.391
1213.197, 1650.799
1213.679, 1656.808
1214.161, 1656.960
1214.643, 1655.322
1215.125, 1655.042
1215.607, 1654.811
1216.089, 1647.864
1216.571, 1634.539
1217.053, 1634.227
1217.536, 1653.385
1218.018, 1672.701
1218.500, 1675.708
1218.982, 1673.775
1219.464, 1675.703
1219.946, 1681.059
1220.428, 1685.175
1220.910, 1687.993
1221.393, 1686.592
1221.875, 1677.324
1222.357, 1669.395
1222.839, 1669.292
1223.321, 1674.971
1223.803, 1687.144
1224.285, 1707.626
1224.767, 1705.031
1225.250, 1679.570
1225.732, 1656.569
1226.214, 1651.168
1226.696, 1652.980
1227.178, 1657.320
1227.660, 1663.040
1228.142, 1669.152
1228.624, 1676.510
1229.106, 1676.052
1229.589, 1667.252
1230.071, 1658.914
1230.553, 1657.556
1231.035, 1659.096
1231.517, 1660.362
1231.999, 1662.351
1232.481, 1669.409
1232.963, 1682.873
1233.445, 1683.725
1233.928, 1668.367
1234.410, 1654.206
1234.892, 1657.599
1235.374, 1667.092
1235.856, 1677.584
1236.338, 1686.624
1236.820, 1682.906
1237.302, 1665.562
1237.785, 1657.995
1238.267, 1668.362
1238.749, 1677.497
1239.231, 1660.851
1239.713, 1641.379
1240.195, 1642.668
1240.677, 1662.119
1241.159, 1670.900
1241.641, 1669.036
1242.124, 1670.152
1242.606, 1681.438
1243.088, 1692.041
1243.570, 1691.700
1244.052, 1687.112
1244.534, 1685.340
1245.016, 1686.717
1245.498, 1684.694
1245.980, 1679.337
1246.463, 1675.619
1246.945, 1677.457
1247.427, 1680.057
1247.909, 1680.045
1248.391, 1679.052
1248.873, 1679.282
1249.355, 1680.919
1249.837, 1681.647
1250.319, 1681.482
1250.802, 1682.090
1251.284, 1685.822
1251.766, 1689.285
1252.248, 1689.196
1252.730, 1688.151
1253.212, 1690.568
1253.694, 1696.371
1254.176, 1701.678
1254.659, 1706.211
1255.141, 1707.950
1255.623, 1701.194
1256.105, 1695.835
1256.587, 1699.469
1257.069, 1707.263
1257.551, 1709.652
1258.033, 1707.126
1258.516, 1705.267
1258.998, 1705.119
1259.480, 1702.617
1259.962, 1687.903
1260.444, 1678.486
1260.926, 1686.888
1261.408, 1704.767
1261.890, 1705.178
1262.372, 1692.287
1262.854, 1691.104
1263.337, 1711.074
1263.819, 1724.261
1264.301, 1708.324
1264.783, 1688.976
1265.265, 1678.084
1265.747, 1674.594
1266.229, 1675.813
1266.711, 1680.897
1267.194, 1686.592
1267.676, 1691.580
1268.158, 1698.113
1268.640, 1709.577
1269.122, 1719.671
1269.604, 1725.376
1270.086, 1726.766
1270.568, 1721.064
1271.051, 1711.075
1271.533, 1706.224
1272.015, 1715.979
1272.497, 1719.998
1272.979, 1711.004
1273.461, 1703.167
1273.943, 1709.908
1274.425, 1725.312
1274.907, 1734.788
1275.390, 1737.837
1275.872, 1733.082
1276.354, 1706.768
1276.836, 1693.523
1277.318, 1697.787
1277.800, 1710.676
1278.282, 1729.191
1278.764, 1747.661
1279.246, 1755.427
1279.729, 1753.481
1280.211, 1746.859
##END=



