##NAMES=Anapaite
##RRUFFID=R141081
##IDEAL CHEMISTRY=Ca_2_Fe^2+^(PO_4_)_2_&#183;4H_2_O
##LOCALITY=Messel mine, Messel, Darmstadt, Hesse, Germany
##OWNER=RRUFF
##SOURCE=Rock Currier
##DESCRIPTION=Pale green to colorless subparallel aggregates. Associated with messelite (R140175) and pyrite
##STATUS=The identification of this mineral is confirmed by single-crystal X-ray diffraction and chemical analysis.
##URL=rruff.info/R141081
##MEASURED CHEMISTRY=(Ca_1.95_Mg_0.05_)(Fe_0.99_Mg_0.02_)(P_1.00_O_4_)_2_Â·4H_2_O ; The grey portion is anapaite and the bright portion is pyrite.
9.059570e+001, 6.911193e+002
9.107782e+001, 6.525721e+002
9.155994e+001, 6.388985e+002
9.204205e+001, 6.665644e+002
9.252417e+001, 7.080313e+002
9.300629e+001, 7.546348e+002
9.348840e+001, 7.990365e+002
9.397052e+001, 8.350160e+002
9.445264e+001, 8.587448e+002
9.493475e+001, 8.806572e+002
9.541687e+001, 9.009511e+002
9.589898e+001, 9.184130e+002
9.638110e+001, 9.360596e+002
9.686321e+001, 9.559282e+002
9.734533e+001, 9.780740e+002
9.782745e+001, 1.000985e+003
9.830956e+001, 1.030188e+003
9.879168e+001, 1.062599e+003
9.927380e+001, 1.102910e+003
9.975591e+001, 1.161323e+003
1.002380e+002, 1.230211e+003
1.007201e+002, 1.289681e+003
1.012023e+002, 1.333038e+003
1.016844e+002, 1.353984e+003
1.021665e+002, 1.347043e+003
1.026486e+002, 1.294504e+003
1.031307e+002, 1.226421e+003
1.036128e+002, 1.167000e+003
1.040950e+002, 1.115237e+003
1.045771e+002, 1.074268e+003
1.050592e+002, 1.048828e+003
1.055413e+002, 1.034313e+003
1.060234e+002, 1.026173e+003
1.065055e+002, 1.023214e+003
1.069877e+002, 1.025059e+003
1.074698e+002, 1.030219e+003
1.079519e+002, 1.037990e+003
1.084340e+002, 1.050625e+003
1.089161e+002, 1.068571e+003
1.093982e+002, 1.091542e+003
1.098804e+002, 1.119104e+003
1.103625e+002, 1.154550e+003
1.108446e+002, 1.202881e+003
1.113267e+002, 1.231216e+003
1.118088e+002, 1.236857e+003
1.122909e+002, 1.227310e+003
1.127731e+002, 1.199351e+003
1.132552e+002, 1.155777e+003
1.137373e+002, 1.106791e+003
1.142194e+002, 1.067189e+003
1.147015e+002, 1.039945e+003
1.151836e+002, 1.018336e+003
1.156658e+002, 1.004315e+003
1.161479e+002, 9.945824e+002
1.166300e+002, 9.862112e+002
1.171121e+002, 9.781630e+002
1.175942e+002, 9.706990e+002
1.180763e+002, 9.646432e+002
1.185584e+002, 9.598911e+002
1.190406e+002, 9.561808e+002
1.195227e+002, 9.538394e+002
1.200048e+002, 9.525533e+002
1.204869e+002, 9.514680e+002
1.209690e+002, 9.502534e+002
1.214511e+002, 9.489991e+002
1.219333e+002, 9.478549e+002
1.224154e+002, 9.467870e+002
1.228975e+002, 9.458647e+002
1.233796e+002, 9.452675e+002
1.238617e+002, 9.450447e+002
1.243438e+002, 9.446617e+002
1.248260e+002, 9.436428e+002
1.253081e+002, 9.423992e+002
1.257902e+002, 9.411903e+002
1.262723e+002, 9.399602e+002
1.267544e+002, 9.390055e+002
1.272365e+002, 9.392006e+002
1.277187e+002, 9.416290e+002
1.282008e+002, 9.433828e+002
1.286829e+002, 9.431549e+002
1.291650e+002, 9.419346e+002
1.296471e+002, 9.411211e+002
1.301292e+002, 9.417408e+002
1.306114e+002, 9.436269e+002
1.310935e+002, 9.442599e+002
1.315756e+002, 9.416371e+002
1.320577e+002, 9.396379e+002
1.325398e+002, 9.398782e+002
1.330219e+002, 9.416672e+002
1.335041e+002, 9.431188e+002
1.339862e+002, 9.424453e+002
1.344683e+002, 9.390826e+002
1.349504e+002, 9.373875e+002
1.354325e+002, 9.380676e+002
1.359146e+002, 9.394753e+002
1.363968e+002, 9.408073e+002
1.368789e+002, 9.419333e+002
1.373610e+002, 9.430449e+002
1.378431e+002, 9.443995e+002
1.383252e+002, 9.461074e+002
1.388073e+002, 9.474072e+002
1.392895e+002, 9.475901e+002
1.397716e+002, 9.476019e+002
1.402537e+002, 9.488187e+002
1.407358e+002, 9.517727e+002
1.412179e+002, 9.550049e+002
1.417000e+002, 9.558961e+002
1.421821e+002, 9.546129e+002
1.426643e+002, 9.547885e+002
1.431464e+002, 9.584593e+002
1.436285e+002, 9.649164e+002
1.441106e+002, 9.713751e+002
1.445927e+002, 9.760311e+002
1.450748e+002, 9.821711e+002
1.455570e+002, 9.909218e+002
1.460391e+002, 1.002383e+003
1.465212e+002, 1.019173e+003
1.470033e+002, 1.042434e+003
1.474854e+002, 1.071897e+003
1.479675e+002, 1.111120e+003
1.484497e+002, 1.165449e+003
1.489318e+002, 1.227976e+003
1.494139e+002, 1.305854e+003
1.498960e+002, 1.397985e+003
1.503781e+002, 1.481396e+003
1.508602e+002, 1.520071e+003
1.513424e+002, 1.500514e+003
1.518245e+002, 1.461512e+003
1.523066e+002, 1.388856e+003
1.527887e+002, 1.312595e+003
1.532708e+002, 1.253693e+003
1.537529e+002, 1.220652e+003
1.542351e+002, 1.210087e+003
1.547172e+002, 1.214409e+003
1.551993e+002, 1.251173e+003
1.556814e+002, 1.283121e+003
1.561635e+002, 1.317022e+003
1.566456e+002, 1.342871e+003
1.571278e+002, 1.347391e+003
1.576099e+002, 1.323471e+003
1.580920e+002, 1.276184e+003
1.585741e+002, 1.225709e+003
1.590562e+002, 1.162913e+003
1.595383e+002, 1.107319e+003
1.600205e+002, 1.064173e+003
1.605026e+002, 1.031951e+003
1.609847e+002, 1.007510e+003
1.614668e+002, 9.901564e+002
1.619489e+002, 9.791863e+002
1.624310e+002, 9.699535e+002
1.629131e+002, 9.623217e+002
1.633953e+002, 9.563375e+002
1.638774e+002, 9.525518e+002
1.643595e+002, 9.508060e+002
1.648416e+002, 9.495901e+002
1.653237e+002, 9.476750e+002
1.658058e+002, 9.458214e+002
1.662880e+002, 9.455990e+002
1.667701e+002, 9.473604e+002
1.672522e+002, 9.506805e+002
1.677343e+002, 9.548400e+002
1.682164e+002, 9.595798e+002
1.686985e+002, 9.663728e+002
1.691807e+002, 9.755143e+002
1.696628e+002, 9.872531e+002
1.701449e+002, 1.003246e+003
1.706270e+002, 1.027097e+003
1.711091e+002, 1.053774e+003
1.715912e+002, 1.072449e+003
1.720734e+002, 1.084145e+003
1.725555e+002, 1.084352e+003
1.730376e+002, 1.068370e+003
1.735197e+002, 1.042710e+003
1.740018e+002, 1.015836e+003
1.744839e+002, 9.917445e+002
1.749661e+002, 9.706788e+002
1.754482e+002, 9.546312e+002
1.759303e+002, 9.467900e+002
1.764124e+002, 9.410416e+002
1.768945e+002, 9.359747e+002
1.773766e+002, 9.317320e+002
1.778588e+002, 9.289057e+002
1.783409e+002, 9.280081e+002
1.788230e+002, 9.290537e+002
1.793051e+002, 9.303726e+002
1.797872e+002, 9.316028e+002
1.802693e+002, 9.334466e+002
1.807515e+002, 9.359943e+002
1.812336e+002, 9.393292e+002
1.817157e+002, 9.434705e+002
1.821978e+002, 9.483491e+002
1.826799e+002, 9.538478e+002
1.831620e+002, 9.616115e+002
1.836441e+002, 9.717770e+002
1.841263e+002, 9.834541e+002
1.846084e+002, 9.976696e+002
1.850905e+002, 1.013612e+003
1.855726e+002, 1.028476e+003
1.860547e+002, 1.040200e+003
1.865368e+002, 1.048514e+003
1.870190e+002, 1.049975e+003
1.875011e+002, 1.041719e+003
1.879832e+002, 1.029054e+003
1.884653e+002, 1.014183e+003
1.889474e+002, 9.976815e+002
1.894296e+002, 9.822802e+002
1.899117e+002, 9.706917e+002
1.903938e+002, 9.630325e+002
1.908759e+002, 9.572526e+002
1.913580e+002, 9.533482e+002
1.918401e+002, 9.511855e+002
1.923223e+002, 9.509117e+002
1.928044e+002, 9.527362e+002
1.932865e+002, 9.554572e+002
1.937686e+002, 9.574727e+002
1.942507e+002, 9.592550e+002
1.947328e+002, 9.628918e+002
1.952150e+002, 9.689684e+002
1.956971e+002, 9.773438e+002
1.961792e+002, 9.877047e+002
1.966613e+002, 9.999074e+002
1.971434e+002, 1.014564e+003
1.976255e+002, 1.030557e+003
1.981077e+002, 1.048776e+003
1.985898e+002, 1.072066e+003
1.990719e+002, 1.101882e+003
1.995540e+002, 1.138088e+003
2.000361e+002, 1.180523e+003
2.005182e+002, 1.233796e+003
2.010004e+002, 1.287327e+003
2.014825e+002, 1.340827e+003
2.019646e+002, 1.390785e+003
2.024467e+002, 1.428462e+003
2.029288e+002, 1.449547e+003
2.034109e+002, 1.453999e+003
2.038930e+002, 1.438339e+003
2.043752e+002, 1.387600e+003
2.048573e+002, 1.330268e+003
2.053394e+002, 1.272720e+003
2.058215e+002, 1.217343e+003
2.063036e+002, 1.166703e+003
2.067857e+002, 1.122993e+003
2.072679e+002, 1.086243e+003
2.077500e+002, 1.055930e+003
2.082321e+002, 1.034595e+003
2.087142e+002, 1.017849e+003
2.091963e+002, 1.005342e+003
2.096784e+002, 9.966102e+002
2.101606e+002, 9.911015e+002
2.106427e+002, 9.885291e+002
2.111248e+002, 9.891140e+002
2.116069e+002, 9.908681e+002
2.120890e+002, 9.930526e+002
2.125711e+002, 9.969044e+002
2.130533e+002, 1.002712e+003
2.135354e+002, 1.010610e+003
2.140175e+002, 1.020726e+003
2.144996e+002, 1.033067e+003
2.149817e+002, 1.047500e+003
2.154638e+002, 1.066030e+003
2.159460e+002, 1.087453e+003
2.164281e+002, 1.112928e+003
2.169102e+002, 1.142706e+003
2.173923e+002, 1.176934e+003
2.178744e+002, 1.216558e+003
2.183565e+002, 1.262566e+003
2.188387e+002, 1.315728e+003
2.193208e+002, 1.371118e+003
2.198029e+002, 1.434462e+003
2.202850e+002, 1.495440e+003
2.207671e+002, 1.552434e+003
2.212492e+002, 1.603438e+003
2.217314e+002, 1.640517e+003
2.222135e+002, 1.656997e+003
2.226956e+002, 1.650001e+003
2.231777e+002, 1.627834e+003
2.236598e+002, 1.583185e+003
2.241419e+002, 1.529049e+003
2.246240e+002, 1.471925e+003
2.251062e+002, 1.412733e+003
2.255883e+002, 1.356266e+003
2.260704e+002, 1.305637e+003
2.265525e+002, 1.261705e+003
2.270346e+002, 1.224265e+003
2.275167e+002, 1.193684e+003
2.279989e+002, 1.169502e+003
2.284810e+002, 1.152831e+003
2.289631e+002, 1.143853e+003
2.294452e+002, 1.138529e+003
2.299273e+002, 1.135535e+003
2.304094e+002, 1.134118e+003
2.308916e+002, 1.132141e+003
2.313737e+002, 1.130357e+003
2.318558e+002, 1.127258e+003
2.323379e+002, 1.121342e+003
2.328200e+002, 1.112622e+003
2.333021e+002, 1.100997e+003
2.337843e+002, 1.084044e+003
2.342664e+002, 1.064411e+003
2.347485e+002, 1.045961e+003
2.352306e+002, 1.029593e+003
2.357127e+002, 1.014882e+003
2.361948e+002, 1.001199e+003
2.366770e+002, 9.884563e+002
2.371591e+002, 9.768242e+002
2.376412e+002, 9.664114e+002
2.381233e+002, 9.571066e+002
2.386054e+002, 9.489130e+002
2.390875e+002, 9.418809e+002
2.395697e+002, 9.358914e+002
2.400518e+002, 9.306853e+002
2.405339e+002, 9.260427e+002
2.410160e+002, 9.228982e+002
2.414981e+002, 9.226545e+002
2.419802e+002, 9.235692e+002
2.424624e+002, 9.238604e+002
2.429445e+002, 9.226899e+002
2.434266e+002, 9.213914e+002
2.439087e+002, 9.225759e+002
2.443908e+002, 9.273359e+002
2.448729e+002, 9.315953e+002
2.453550e+002, 9.344895e+002
2.458372e+002, 9.363201e+002
2.463193e+002, 9.373632e+002
2.468014e+002, 9.377294e+002
2.472835e+002, 9.370910e+002
2.477656e+002, 9.347794e+002
2.482477e+002, 9.303870e+002
2.487299e+002, 9.251674e+002
2.492120e+002, 9.185421e+002
2.496941e+002, 9.117800e+002
2.501762e+002, 9.059106e+002
2.506583e+002, 9.012300e+002
2.511404e+002, 8.972440e+002
2.516226e+002, 8.930516e+002
2.521047e+002, 8.883859e+002
2.525868e+002, 8.842068e+002
2.530689e+002, 8.803265e+002
2.535510e+002, 8.770424e+002
2.540331e+002, 8.747516e+002
2.545153e+002, 8.734881e+002
2.549974e+002, 8.726914e+002
2.554795e+002, 8.714436e+002
2.559616e+002, 8.692794e+002
2.564437e+002, 8.677159e+002
2.569258e+002, 8.664990e+002
2.574080e+002, 8.659515e+002
2.578901e+002, 8.665629e+002
2.583722e+002, 8.682840e+002
2.588543e+002, 8.703754e+002
2.593364e+002, 8.717659e+002
2.598185e+002, 8.718489e+002
2.603007e+002, 8.728058e+002
2.607828e+002, 8.746970e+002
2.612649e+002, 8.772109e+002
2.617470e+002, 8.803051e+002
2.622291e+002, 8.838972e+002
2.627112e+002, 8.876870e+002
2.631934e+002, 8.912511e+002
2.636755e+002, 8.941547e+002
2.641576e+002, 8.985701e+002
2.646397e+002, 9.061778e+002
2.651218e+002, 9.135753e+002
2.656039e+002, 9.190553e+002
2.660861e+002, 9.224686e+002
2.665682e+002, 9.245126e+002
2.670503e+002, 9.258939e+002
2.675324e+002, 9.267503e+002
2.680145e+002, 9.256840e+002
2.684966e+002, 9.219771e+002
2.689788e+002, 9.174482e+002
2.694609e+002, 9.127253e+002
2.699430e+002, 9.079437e+002
2.704251e+002, 9.030593e+002
2.709072e+002, 8.979091e+002
2.713893e+002, 8.924761e+002
2.718715e+002, 8.884359e+002
2.723536e+002, 8.863594e+002
2.728357e+002, 8.847858e+002
2.733178e+002, 8.827346e+002
2.737999e+002, 8.806165e+002
2.742820e+002, 8.797150e+002
2.747642e+002, 8.810234e+002
2.752463e+002, 8.843476e+002
2.757284e+002, 8.873057e+002
2.762105e+002, 8.896473e+002
2.766926e+002, 8.919930e+002
2.771747e+002, 8.942092e+002
2.776568e+002, 8.965882e+002
2.781389e+002, 8.996766e+002
2.786211e+002, 9.037472e+002
2.791032e+002, 9.087766e+002
2.795853e+002, 9.148652e+002
2.800674e+002, 9.212656e+002
2.805495e+002, 9.293189e+002
2.810316e+002, 9.392949e+002
2.815138e+002, 9.511617e+002
2.819959e+002, 9.648821e+002
2.824780e+002, 9.804207e+002
2.829601e+002, 9.978326e+002
2.834422e+002, 1.017128e+003
2.839243e+002, 1.038352e+003
2.844065e+002, 1.061045e+003
2.848886e+002, 1.086908e+003
2.853707e+002, 1.113740e+003
2.858528e+002, 1.138953e+003
2.863349e+002, 1.161972e+003
2.868170e+002, 1.181700e+003
2.872992e+002, 1.196390e+003
2.877813e+002, 1.206675e+003
2.882634e+002, 1.210598e+003
2.887455e+002, 1.206520e+003
2.892276e+002, 1.196318e+003
2.897097e+002, 1.181476e+003
2.901919e+002, 1.162229e+003
2.906740e+002, 1.140342e+003
2.911561e+002, 1.116988e+003
2.916382e+002, 1.091894e+003
2.921203e+002, 1.068272e+003
2.926024e+002, 1.045909e+003
2.930846e+002, 1.025454e+003
2.935667e+002, 1.007692e+003
2.940488e+002, 9.926375e+002
2.945309e+002, 9.796315e+002
2.950130e+002, 9.679885e+002
2.954951e+002, 9.579287e+002
2.959773e+002, 9.503624e+002
2.964594e+002, 9.467756e+002
2.969415e+002, 9.446458e+002
2.974236e+002, 9.421074e+002
2.979057e+002, 9.391199e+002
2.983878e+002, 9.363719e+002
2.988700e+002, 9.340917e+002
2.993521e+002, 9.325570e+002
2.998342e+002, 9.325496e+002
3.003163e+002, 9.363345e+002
3.007984e+002, 9.395583e+002
3.012805e+002, 9.395550e+002
3.017627e+002, 9.367168e+002
3.022448e+002, 9.329745e+002
3.027269e+002, 9.293110e+002
3.032090e+002, 9.253605e+002
3.036911e+002, 9.200981e+002
3.041732e+002, 9.128506e+002
3.046554e+002, 9.055188e+002
3.051375e+002, 8.984664e+002
3.056196e+002, 8.919409e+002
3.061017e+002, 8.867178e+002
3.065838e+002, 8.833064e+002
3.070659e+002, 8.809614e+002
3.075481e+002, 8.783444e+002
3.080302e+002, 8.754374e+002
3.085123e+002, 8.724523e+002
3.089944e+002, 8.691767e+002
3.094765e+002, 8.659280e+002
3.099586e+002, 8.633645e+002
3.104408e+002, 8.617277e+002
3.109229e+002, 8.605106e+002
3.114050e+002, 8.590974e+002
3.118871e+002, 8.574750e+002
3.123692e+002, 8.559052e+002
3.128513e+002, 8.538737e+002
3.133335e+002, 8.521776e+002
3.138156e+002, 8.520164e+002
3.142977e+002, 8.536071e+002
3.147798e+002, 8.556071e+002
3.152619e+002, 8.569092e+002
3.157440e+002, 8.575108e+002
3.162262e+002, 8.577944e+002
3.167083e+002, 8.577006e+002
3.171904e+002, 8.573577e+002
3.176725e+002, 8.567626e+002
3.181546e+002, 8.559432e+002
3.186367e+002, 8.551406e+002
3.191188e+002, 8.543333e+002
3.196010e+002, 8.537372e+002
3.200831e+002, 8.540342e+002
3.205652e+002, 8.554929e+002
3.210473e+002, 8.575402e+002
3.215294e+002, 8.603564e+002
3.220115e+002, 8.636237e+002
3.224937e+002, 8.661383e+002
3.229758e+002, 8.670922e+002
3.234579e+002, 8.672263e+002
3.239400e+002, 8.683266e+002
3.244221e+002, 8.702874e+002
3.249042e+002, 8.731553e+002
3.253864e+002, 8.773007e+002
3.258685e+002, 8.823192e+002
3.263506e+002, 8.874678e+002
3.268327e+002, 8.925019e+002
3.273148e+002, 8.976855e+002
3.277969e+002, 9.033942e+002
3.282791e+002, 9.095173e+002
3.287612e+002, 9.164703e+002
3.292433e+002, 9.246858e+002
3.297254e+002, 9.335931e+002
3.302075e+002, 9.424581e+002
3.306896e+002, 9.511545e+002
3.311718e+002, 9.602183e+002
3.316539e+002, 9.704620e+002
3.321360e+002, 9.819861e+002
3.326181e+002, 9.927106e+002
3.331002e+002, 1.002599e+003
3.335823e+002, 1.011577e+003
3.340645e+002, 1.019848e+003
3.345466e+002, 1.027264e+003
3.350287e+002, 1.033435e+003
3.355108e+002, 1.038396e+003
3.359929e+002, 1.041701e+003
3.364750e+002, 1.041213e+003
3.369572e+002, 1.035733e+003
3.374393e+002, 1.028242e+003
3.379214e+002, 1.019122e+003
3.384035e+002, 1.008895e+003
3.388856e+002, 9.988906e+002
3.393677e+002, 9.898073e+002
3.398499e+002, 9.811449e+002
3.403320e+002, 9.714607e+002
3.408141e+002, 9.597215e+002
3.412962e+002, 9.489911e+002
3.417783e+002, 9.399479e+002
3.422604e+002, 9.321829e+002
3.427426e+002, 9.251279e+002
3.432247e+002, 9.186444e+002
3.437068e+002, 9.132176e+002
3.441889e+002, 9.097025e+002
3.446710e+002, 9.090231e+002
3.451531e+002, 9.077639e+002
3.456353e+002, 9.043665e+002
3.461174e+002, 9.014727e+002
3.465995e+002, 9.014474e+002
3.470816e+002, 9.042719e+002
3.475637e+002, 9.081459e+002
3.480458e+002, 9.116455e+002
3.485280e+002, 9.147901e+002
3.490101e+002, 9.167594e+002
3.494922e+002, 9.159440e+002
3.499743e+002, 9.157725e+002
3.504564e+002, 9.182252e+002
3.509385e+002, 9.224877e+002
3.514207e+002, 9.267420e+002
3.519028e+002, 9.300146e+002
3.523849e+002, 9.322451e+002
3.528670e+002, 9.331069e+002
3.533491e+002, 9.329215e+002
3.538312e+002, 9.309951e+002
3.543134e+002, 9.263634e+002
3.547955e+002, 9.202929e+002
3.552776e+002, 9.142380e+002
3.557597e+002, 9.087029e+002
3.562418e+002, 9.031470e+002
3.567239e+002, 8.965812e+002
3.572061e+002, 8.884807e+002
3.576882e+002, 8.803401e+002
3.581703e+002, 8.713229e+002
3.586524e+002, 8.628641e+002
3.591345e+002, 8.562722e+002
3.596166e+002, 8.514241e+002
3.600987e+002, 8.470834e+002
3.605808e+002, 8.419238e+002
3.610630e+002, 8.357285e+002
3.615451e+002, 8.308218e+002
3.620272e+002, 8.278663e+002
3.625093e+002, 8.254171e+002
3.629914e+002, 8.232202e+002
3.634735e+002, 8.211544e+002
3.639557e+002, 8.191244e+002
3.644378e+002, 8.170568e+002
3.649199e+002, 8.150102e+002
3.654020e+002, 8.132408e+002
3.658841e+002, 8.119828e+002
3.663662e+002, 8.107072e+002
3.668484e+002, 8.096761e+002
3.673305e+002, 8.084493e+002
3.678126e+002, 8.062664e+002
3.682947e+002, 8.029910e+002
3.687768e+002, 7.996805e+002
3.692589e+002, 7.981729e+002
3.697411e+002, 7.994115e+002
3.702232e+002, 7.999016e+002
3.707053e+002, 7.993643e+002
3.711874e+002, 7.982437e+002
3.716695e+002, 7.962655e+002
3.721516e+002, 7.937601e+002
3.726338e+002, 7.917069e+002
3.731159e+002, 7.910808e+002
3.735980e+002, 7.918363e+002
3.740801e+002, 7.925438e+002
3.745622e+002, 7.935937e+002
3.750443e+002, 7.940508e+002
3.755265e+002, 7.935041e+002
3.760086e+002, 7.922348e+002
3.764907e+002, 7.905909e+002
3.769728e+002, 7.886306e+002
3.774549e+002, 7.866326e+002
3.779370e+002, 7.852460e+002
3.784192e+002, 7.846378e+002
3.789013e+002, 7.841808e+002
3.793834e+002, 7.836902e+002
3.798655e+002, 7.832900e+002
3.803476e+002, 7.831735e+002
3.808297e+002, 7.833730e+002
3.813119e+002, 7.835328e+002
3.817940e+002, 7.831686e+002
3.822761e+002, 7.822977e+002
3.827582e+002, 7.817922e+002
3.832403e+002, 7.820856e+002
3.837224e+002, 7.823909e+002
3.842046e+002, 7.822476e+002
3.846867e+002, 7.816915e+002
3.851688e+002, 7.808634e+002
3.856509e+002, 7.794219e+002
3.861330e+002, 7.778361e+002
3.866151e+002, 7.773732e+002
3.870973e+002, 7.783734e+002
3.875794e+002, 7.792601e+002
3.880615e+002, 7.788859e+002
3.885436e+002, 7.778904e+002
3.890257e+002, 7.771786e+002
3.895078e+002, 7.770530e+002
3.899900e+002, 7.769886e+002
3.904721e+002, 7.764966e+002
3.909542e+002, 7.756207e+002
3.914363e+002, 7.747006e+002
3.919184e+002, 7.737299e+002
3.924005e+002, 7.729152e+002
3.928827e+002, 7.725914e+002
3.933648e+002, 7.727879e+002
3.938469e+002, 7.729720e+002
3.943290e+002, 7.727660e+002
3.948111e+002, 7.724795e+002
3.952932e+002, 7.727490e+002
3.957754e+002, 7.737294e+002
3.962575e+002, 7.746293e+002
3.967396e+002, 7.746701e+002
3.972217e+002, 7.739235e+002
3.977038e+002, 7.734240e+002
3.981859e+002, 7.732497e+002
3.986681e+002, 7.733046e+002
3.991501e+002, 7.736124e+002
3.996323e+002, 7.741143e+002
4.001144e+002, 7.746943e+002
4.005965e+002, 7.753874e+002
4.010786e+002, 7.759675e+002
4.015607e+002, 7.756603e+002
4.020428e+002, 7.736895e+002
4.025250e+002, 7.723214e+002
4.030071e+002, 7.722854e+002
4.034892e+002, 7.728942e+002
4.039713e+002, 7.733841e+002
4.044534e+002, 7.735754e+002
4.049355e+002, 7.737435e+002
4.054177e+002, 7.742511e+002
4.058998e+002, 7.752354e+002
4.063819e+002, 7.758229e+002
4.068640e+002, 7.757690e+002
4.073461e+002, 7.756068e+002
4.078282e+002, 7.755248e+002
4.083104e+002, 7.755525e+002
4.087925e+002, 7.756736e+002
4.092746e+002, 7.758732e+002
4.097567e+002, 7.761771e+002
4.102388e+002, 7.767099e+002
4.107209e+002, 7.778887e+002
4.112031e+002, 7.787501e+002
4.116852e+002, 7.788470e+002
4.121673e+002, 7.787979e+002
4.126494e+002, 7.792835e+002
4.131315e+002, 7.804396e+002
4.136136e+002, 7.817639e+002
4.140958e+002, 7.824454e+002
4.145779e+002, 7.821024e+002
4.150600e+002, 7.826799e+002
4.155421e+002, 7.849609e+002
4.160242e+002, 7.874636e+002
4.165063e+002, 7.895031e+002
4.169885e+002, 7.913096e+002
4.174706e+002, 7.934868e+002
4.179527e+002, 7.964561e+002
4.184348e+002, 8.000658e+002
4.189169e+002, 8.037493e+002
4.193990e+002, 8.071095e+002
4.198812e+002, 8.114314e+002
4.203633e+002, 8.178181e+002
4.208454e+002, 8.248714e+002
4.213275e+002, 8.312079e+002
4.218096e+002, 8.364689e+002
4.222917e+002, 8.415910e+002
4.227739e+002, 8.473491e+002
4.232560e+002, 8.537368e+002
4.237381e+002, 8.607292e+002
4.242202e+002, 8.675967e+002
4.247023e+002, 8.761830e+002
4.251844e+002, 8.877542e+002
4.256666e+002, 9.019846e+002
4.261487e+002, 9.179492e+002
4.266308e+002, 9.351976e+002
4.271129e+002, 9.540178e+002
4.275950e+002, 9.742652e+002
4.280771e+002, 9.959617e+002
4.285593e+002, 1.020844e+003
4.290414e+002, 1.050377e+003
4.295235e+002, 1.083609e+003
4.300056e+002, 1.117805e+003
4.304877e+002, 1.153911e+003
4.309698e+002, 1.188888e+003
4.314520e+002, 1.222525e+003
4.319341e+002, 1.253638e+003
4.324162e+002, 1.280983e+003
4.328983e+002, 1.304535e+003
4.333804e+002, 1.321396e+003
4.338625e+002, 1.327887e+003
4.343447e+002, 1.322915e+003
4.348268e+002, 1.311000e+003
4.353089e+002, 1.289252e+003
4.357910e+002, 1.263168e+003
4.362731e+002, 1.234379e+003
4.367552e+002, 1.204141e+003
4.372374e+002, 1.175172e+003
4.377195e+002, 1.149009e+003
4.382016e+002, 1.125426e+003
4.386837e+002, 1.104082e+003
4.391658e+002, 1.084035e+003
4.396479e+002, 1.067507e+003
4.401301e+002, 1.055831e+003
4.406122e+002, 1.047132e+003
4.410943e+002, 1.039802e+003
4.415764e+002, 1.033523e+003
4.420585e+002, 1.028954e+003
4.425406e+002, 1.027127e+003
4.430227e+002, 1.028467e+003
4.435049e+002, 1.029430e+003
4.439870e+002, 1.030222e+003
4.444691e+002, 1.030415e+003
4.449512e+002, 1.030106e+003
4.454333e+002, 1.029055e+003
4.459154e+002, 1.027026e+003
4.463976e+002, 1.023971e+003
4.468797e+002, 1.019524e+003
4.473618e+002, 1.012691e+003
4.478439e+002, 1.002932e+003
4.483260e+002, 9.923795e+002
4.488081e+002, 9.811261e+002
4.492903e+002, 9.693324e+002
4.497724e+002, 9.568265e+002
4.502545e+002, 9.437074e+002
4.507366e+002, 9.305700e+002
4.512187e+002, 9.177235e+002
4.517008e+002, 9.052009e+002
4.521830e+002, 8.934201e+002
4.526651e+002, 8.823414e+002
4.531472e+002, 8.722556e+002
4.536293e+002, 8.639553e+002
4.541114e+002, 8.566187e+002
4.545935e+002, 8.491212e+002
4.550757e+002, 8.411384e+002
4.555578e+002, 8.331846e+002
4.560399e+002, 8.254632e+002
4.565220e+002, 8.180731e+002
4.570041e+002, 8.112350e+002
4.574862e+002, 8.048881e+002
4.579684e+002, 7.993784e+002
4.584505e+002, 7.956634e+002
4.589326e+002, 7.937407e+002
4.594147e+002, 7.911107e+002
4.598968e+002, 7.866766e+002
4.603789e+002, 7.818459e+002
4.608611e+002, 7.776736e+002
4.613432e+002, 7.742292e+002
4.618253e+002, 7.713668e+002
4.623074e+002, 7.690108e+002
4.627895e+002, 7.671379e+002
4.632716e+002, 7.656121e+002
4.637538e+002, 7.655245e+002
4.642359e+002, 7.643441e+002
4.647180e+002, 7.607559e+002
4.652001e+002, 7.564793e+002
4.656822e+002, 7.531988e+002
4.661643e+002, 7.512562e+002
4.666465e+002, 7.501194e+002
4.671286e+002, 7.493049e+002
4.676107e+002, 7.488806e+002
4.680928e+002, 7.480115e+002
4.685749e+002, 7.463990e+002
4.690570e+002, 7.446368e+002
4.695392e+002, 7.425212e+002
4.700213e+002, 7.404504e+002
4.705034e+002, 7.390778e+002
4.709855e+002, 7.387095e+002
4.714676e+002, 7.388244e+002
4.719497e+002, 7.385763e+002
4.724319e+002, 7.379729e+002
4.729140e+002, 7.369835e+002
4.733961e+002, 7.353193e+002
4.738782e+002, 7.334996e+002
4.743603e+002, 7.318243e+002
4.748424e+002, 7.302744e+002
4.753246e+002, 7.286332e+002
4.758067e+002, 7.265652e+002
4.762888e+002, 7.244088e+002
4.767709e+002, 7.229981e+002
4.772530e+002, 7.224651e+002
4.777351e+002, 7.218760e+002
4.782173e+002, 7.205898e+002
4.786994e+002, 7.191132e+002
4.791815e+002, 7.183566e+002
4.796636e+002, 7.186298e+002
4.801457e+002, 7.186136e+002
4.806278e+002, 7.173193e+002
4.811100e+002, 7.153685e+002
4.815920e+002, 7.137327e+002
4.820742e+002, 7.125610e+002
4.825563e+002, 7.121238e+002
4.830384e+002, 7.129247e+002
4.835205e+002, 7.149215e+002
4.840026e+002, 7.160090e+002
4.844847e+002, 7.160914e+002
4.849669e+002, 7.154334e+002
4.854490e+002, 7.134949e+002
4.859311e+002, 7.110183e+002
4.864132e+002, 7.094047e+002
4.868953e+002, 7.091624e+002
4.873774e+002, 7.094254e+002
4.878596e+002, 7.087084e+002
4.883417e+002, 7.063410e+002
4.888238e+002, 7.048295e+002
4.893059e+002, 7.048977e+002
4.897880e+002, 7.049875e+002
4.902701e+002, 7.043188e+002
4.907523e+002, 7.030622e+002
4.912344e+002, 7.017382e+002
4.917165e+002, 7.006532e+002
4.921986e+002, 6.997423e+002
4.926807e+002, 6.986867e+002
4.931628e+002, 6.970898e+002
4.936450e+002, 6.964614e+002
4.941271e+002, 6.985172e+002
4.946092e+002, 7.006447e+002
4.950913e+002, 7.009329e+002
4.955734e+002, 6.993829e+002
4.960555e+002, 6.975341e+002
4.965377e+002, 6.961585e+002
4.970198e+002, 6.953186e+002
4.975019e+002, 6.954755e+002
4.979840e+002, 6.969274e+002
4.984661e+002, 6.979944e+002
4.989482e+002, 6.976564e+002
4.994304e+002, 6.963470e+002
4.999125e+002, 6.948730e+002
5.003946e+002, 6.930411e+002
5.008767e+002, 6.916098e+002
5.013588e+002, 6.911011e+002
5.018409e+002, 6.912000e+002
5.023231e+002, 6.914826e+002
5.028052e+002, 6.918708e+002
5.032873e+002, 6.920135e+002
5.037694e+002, 6.915406e+002
5.042515e+002, 6.904210e+002
5.047336e+002, 6.893212e+002
5.052158e+002, 6.877999e+002
5.056979e+002, 6.867834e+002
5.061800e+002, 6.871328e+002
5.066621e+002, 6.880389e+002
5.071442e+002, 6.882024e+002
5.076263e+002, 6.871752e+002
5.081085e+002, 6.856426e+002
5.085906e+002, 6.846882e+002
5.090727e+002, 6.845423e+002
5.095548e+002, 6.841257e+002
5.100369e+002, 6.827823e+002
5.105190e+002, 6.818213e+002
5.110012e+002, 6.822713e+002
5.114833e+002, 6.833964e+002
5.119654e+002, 6.836515e+002
5.124475e+002, 6.820883e+002
5.129296e+002, 6.798845e+002
5.134117e+002, 6.793664e+002
5.138939e+002, 6.808124e+002
5.143760e+002, 6.817911e+002
5.148581e+002, 6.816417e+002
5.153402e+002, 6.809727e+002
5.158223e+002, 6.803790e+002
5.163044e+002, 6.798044e+002
5.167866e+002, 6.788348e+002
5.172687e+002, 6.768099e+002
5.177508e+002, 6.745712e+002
5.182329e+002, 6.733059e+002
5.187150e+002, 6.729634e+002
5.191971e+002, 6.726182e+002
5.196793e+002, 6.718024e+002
5.201614e+002, 6.707589e+002
5.206435e+002, 6.700204e+002
5.211256e+002, 6.695096e+002
5.216077e+002, 6.694056e+002
5.220898e+002, 6.701984e+002
5.225720e+002, 6.710888e+002
5.230541e+002, 6.713162e+002
5.235362e+002, 6.709045e+002
5.240183e+002, 6.703565e+002
5.245004e+002, 6.700187e+002
5.249825e+002, 6.698666e+002
5.254647e+002, 6.697771e+002
5.259468e+002, 6.699041e+002
5.264289e+002, 6.698699e+002
5.269110e+002, 6.695939e+002
5.273931e+002, 6.691905e+002
5.278752e+002, 6.687496e+002
5.283574e+002, 6.682850e+002
5.288395e+002, 6.677587e+002
5.293216e+002, 6.670986e+002
5.298037e+002, 6.663434e+002
5.302858e+002, 6.657197e+002
5.307679e+002, 6.652498e+002
5.312501e+002, 6.648654e+002
5.317322e+002, 6.645033e+002
5.322143e+002, 6.642298e+002
5.326964e+002, 6.641454e+002
5.331785e+002, 6.642861e+002
5.336606e+002, 6.644662e+002
5.341428e+002, 6.646917e+002
5.346249e+002, 6.648453e+002
5.351070e+002, 6.645476e+002
5.355891e+002, 6.637070e+002
5.360712e+002, 6.629782e+002
5.365533e+002, 6.628260e+002
5.370355e+002, 6.632229e+002
5.375176e+002, 6.638708e+002
5.379997e+002, 6.652635e+002
5.384818e+002, 6.662854e+002
5.389639e+002, 6.665192e+002
5.394460e+002, 6.662608e+002
5.399282e+002, 6.655633e+002
5.404103e+002, 6.645841e+002
5.408924e+002, 6.641146e+002
5.413745e+002, 6.650553e+002
5.418566e+002, 6.674470e+002
5.423387e+002, 6.698320e+002
5.428209e+002, 6.716610e+002
5.433029e+002, 6.741599e+002
5.437850e+002, 6.767424e+002
5.442672e+002, 6.805107e+002
5.447493e+002, 6.869548e+002
5.452314e+002, 6.963866e+002
5.457135e+002, 7.072244e+002
5.461956e+002, 7.189074e+002
5.466777e+002, 7.311049e+002
5.471599e+002, 7.394846e+002
5.476420e+002, 7.440205e+002
5.481241e+002, 7.443165e+002
5.486062e+002, 7.382814e+002
5.490883e+002, 7.281743e+002
5.495704e+002, 7.167906e+002
5.500526e+002, 7.034619e+002
5.505347e+002, 6.914089e+002
5.510168e+002, 6.828902e+002
5.514989e+002, 6.770214e+002
5.519810e+002, 6.720648e+002
5.524631e+002, 6.676669e+002
5.529453e+002, 6.639109e+002
5.534274e+002, 6.609440e+002
5.539095e+002, 6.587627e+002
5.543916e+002, 6.567415e+002
5.548737e+002, 6.545269e+002
5.553558e+002, 6.528598e+002
5.558380e+002, 6.524608e+002
5.563201e+002, 6.524758e+002
5.568022e+002, 6.515820e+002
5.572843e+002, 6.495742e+002
5.577664e+002, 6.477961e+002
5.582485e+002, 6.480178e+002
5.587307e+002, 6.503403e+002
5.592128e+002, 6.517291e+002
5.596949e+002, 6.517494e+002
5.601770e+002, 6.513912e+002
5.606591e+002, 6.509247e+002
5.611412e+002, 6.503515e+002
5.616234e+002, 6.496535e+002
5.621055e+002, 6.488231e+002
5.625876e+002, 6.479297e+002
5.630697e+002, 6.469057e+002
5.635518e+002, 6.458599e+002
5.640339e+002, 6.452139e+002
5.645161e+002, 6.450739e+002
5.649982e+002, 6.450282e+002
5.654803e+002, 6.447880e+002
5.659624e+002, 6.443998e+002
5.664445e+002, 6.440734e+002
5.669266e+002, 6.435635e+002
5.674088e+002, 6.434581e+002
5.678909e+002, 6.442696e+002
5.683730e+002, 6.454481e+002
5.688551e+002, 6.462682e+002
5.693372e+002, 6.466247e+002
5.698193e+002, 6.469496e+002
5.703015e+002, 6.476558e+002
5.707836e+002, 6.487175e+002
5.712657e+002, 6.496076e+002
5.717478e+002, 6.505129e+002
5.722299e+002, 6.509603e+002
5.727120e+002, 6.502601e+002
5.731942e+002, 6.494745e+002
5.736763e+002, 6.495364e+002
5.741584e+002, 6.506046e+002
5.746405e+002, 6.522994e+002
5.751226e+002, 6.544650e+002
5.756047e+002, 6.570031e+002
5.760869e+002, 6.594508e+002
5.765690e+002, 6.617091e+002
5.770511e+002, 6.642610e+002
5.775332e+002, 6.671858e+002
5.780153e+002, 6.706337e+002
5.784974e+002, 6.746500e+002
5.789796e+002, 6.791428e+002
5.794617e+002, 6.846286e+002
5.799438e+002, 6.922478e+002
5.804259e+002, 7.003987e+002
5.809080e+002, 7.073450e+002
5.813901e+002, 7.129824e+002
5.818723e+002, 7.180990e+002
5.823544e+002, 7.232346e+002
5.828365e+002, 7.281298e+002
5.833186e+002, 7.319868e+002
5.838007e+002, 7.359816e+002
5.842828e+002, 7.369398e+002
5.847650e+002, 7.335070e+002
5.852471e+002, 7.283350e+002
5.857292e+002, 7.228300e+002
5.862113e+002, 7.171594e+002
5.866934e+002, 7.110237e+002
5.871755e+002, 7.041605e+002
5.876577e+002, 6.968688e+002
5.881398e+002, 6.896768e+002
5.886219e+002, 6.824276e+002
5.891040e+002, 6.763389e+002
5.895861e+002, 6.721614e+002
5.900682e+002, 6.687372e+002
5.905504e+002, 6.649470e+002
5.910325e+002, 6.608869e+002
5.915146e+002, 6.572441e+002
5.919967e+002, 6.540333e+002
5.924788e+002, 6.514954e+002
5.929609e+002, 6.502128e+002
5.934431e+002, 6.498271e+002
5.939252e+002, 6.492972e+002
5.944073e+002, 6.482512e+002
5.948894e+002, 6.469303e+002
5.953715e+002, 6.456888e+002
5.958536e+002, 6.446317e+002
5.963358e+002, 6.431461e+002
5.968179e+002, 6.406293e+002
5.973000e+002, 6.384189e+002
5.977821e+002, 6.370237e+002
5.982642e+002, 6.362079e+002
5.987463e+002, 6.356457e+002
5.992285e+002, 6.352156e+002
5.997106e+002, 6.348750e+002
6.001927e+002, 6.345239e+002
6.006748e+002, 6.341688e+002
6.011569e+002, 6.341921e+002
6.016390e+002, 6.349863e+002
6.021212e+002, 6.353457e+002
6.026033e+002, 6.337914e+002
6.030854e+002, 6.315984e+002
6.035675e+002, 6.309506e+002
6.040496e+002, 6.327294e+002
6.045317e+002, 6.341729e+002
6.050139e+002, 6.333275e+002
6.054960e+002, 6.315388e+002
6.059781e+002, 6.307806e+002
6.064602e+002, 6.312507e+002
6.069423e+002, 6.321494e+002
6.074244e+002, 6.329874e+002
6.079066e+002, 6.337051e+002
6.083887e+002, 6.340143e+002
6.088708e+002, 6.332688e+002
6.093529e+002, 6.330535e+002
6.098350e+002, 6.337239e+002
6.103171e+002, 6.346875e+002
6.107993e+002, 6.354675e+002
6.112814e+002, 6.361395e+002
6.117635e+002, 6.371328e+002
6.122456e+002, 6.387861e+002
6.127277e+002, 6.408131e+002
6.132098e+002, 6.427056e+002
6.136920e+002, 6.444873e+002
6.141741e+002, 6.458473e+002
6.146562e+002, 6.462267e+002
6.151383e+002, 6.468051e+002
6.156204e+002, 6.488788e+002
6.161025e+002, 6.522462e+002
6.165847e+002, 6.558744e+002
6.170668e+002, 6.592520e+002
6.175489e+002, 6.631174e+002
6.180310e+002, 6.682585e+002
6.185131e+002, 6.741727e+002
6.189952e+002, 6.797861e+002
6.194774e+002, 6.847941e+002
6.199595e+002, 6.898378e+002
6.204416e+002, 6.957322e+002
6.209237e+002, 7.025879e+002
6.214058e+002, 7.090082e+002
6.218879e+002, 7.165189e+002
6.223701e+002, 7.215797e+002
6.228522e+002, 7.226776e+002
6.233343e+002, 7.214516e+002
6.238164e+002, 7.196553e+002
6.242985e+002, 7.175872e+002
6.247806e+002, 7.140768e+002
6.252628e+002, 7.073279e+002
6.257448e+002, 6.985473e+002
6.262269e+002, 6.909617e+002
6.267090e+002, 6.846785e+002
6.271912e+002, 6.790109e+002
6.276733e+002, 6.738107e+002
6.281554e+002, 6.688529e+002
6.286375e+002, 6.634869e+002
6.291196e+002, 6.574397e+002
6.296017e+002, 6.523212e+002
6.300839e+002, 6.484786e+002
6.305660e+002, 6.455135e+002
6.310481e+002, 6.433619e+002
6.315302e+002, 6.418256e+002
6.320123e+002, 6.406012e+002
6.324944e+002, 6.395549e+002
6.329766e+002, 6.385491e+002
6.334587e+002, 6.372568e+002
6.339408e+002, 6.355043e+002
6.344229e+002, 6.343334e+002
6.349050e+002, 6.339271e+002
6.353871e+002, 6.339223e+002
6.358693e+002, 6.342361e+002
6.363514e+002, 6.347798e+002
6.368335e+002, 6.355005e+002
6.373156e+002, 6.364715e+002
6.377977e+002, 6.372178e+002
6.382798e+002, 6.370366e+002
6.387620e+002, 6.365064e+002
6.392441e+002, 6.368625e+002
6.397262e+002, 6.382137e+002
6.402083e+002, 6.395434e+002
6.406904e+002, 6.401072e+002
6.411725e+002, 6.402556e+002
6.416547e+002, 6.411772e+002
6.421368e+002, 6.436292e+002
6.426189e+002, 6.457562e+002
6.431010e+002, 6.470332e+002
6.435831e+002, 6.484441e+002
6.440652e+002, 6.507657e+002
6.445474e+002, 6.537496e+002
6.450295e+002, 6.566610e+002
6.455116e+002, 6.590931e+002
6.459937e+002, 6.613184e+002
6.464758e+002, 6.636057e+002
6.469579e+002, 6.659595e+002
6.474401e+002, 6.689626e+002
6.479222e+002, 6.726496e+002
6.484043e+002, 6.771110e+002
6.488864e+002, 6.831190e+002
6.493685e+002, 6.899813e+002
6.498506e+002, 6.953036e+002
6.503328e+002, 6.980323e+002
6.508149e+002, 7.005671e+002
6.512970e+002, 7.041592e+002
6.517791e+002, 7.078845e+002
6.522612e+002, 7.105832e+002
6.527433e+002, 7.121746e+002
6.532255e+002, 7.132967e+002
6.537076e+002, 7.144287e+002
6.541897e+002, 7.154377e+002
6.546718e+002, 7.158915e+002
6.551539e+002, 7.159523e+002
6.556360e+002, 7.150408e+002
6.561182e+002, 7.123420e+002
6.566003e+002, 7.092316e+002
6.570824e+002, 7.068235e+002
6.575645e+002, 7.046354e+002
6.580466e+002, 7.011022e+002
6.585287e+002, 6.950885e+002
6.590109e+002, 6.883601e+002
6.594930e+002, 6.825156e+002
6.599751e+002, 6.772999e+002
6.604572e+002, 6.718800e+002
6.609393e+002, 6.660844e+002
6.614214e+002, 6.603372e+002
6.619036e+002, 6.549650e+002
6.623857e+002, 6.499537e+002
6.628678e+002, 6.452338e+002
6.633499e+002, 6.408038e+002
6.638320e+002, 6.366985e+002
6.643141e+002, 6.329518e+002
6.647963e+002, 6.294982e+002
6.652784e+002, 6.264352e+002
6.657605e+002, 6.236398e+002
6.662426e+002, 6.206923e+002
6.667247e+002, 6.171568e+002
6.672068e+002, 6.135907e+002
6.676890e+002, 6.110132e+002
6.681711e+002, 6.094046e+002
6.686532e+002, 6.081443e+002
6.691353e+002, 6.072987e+002
6.696174e+002, 6.062976e+002
6.700995e+002, 6.045732e+002
6.705817e+002, 6.021609e+002
6.710638e+002, 5.997261e+002
6.715459e+002, 5.966361e+002
6.720280e+002, 5.943107e+002
6.725101e+002, 5.938209e+002
6.729922e+002, 5.939742e+002
6.734744e+002, 5.934762e+002
6.739565e+002, 5.921992e+002
6.744386e+002, 5.907657e+002
6.749207e+002, 5.896277e+002
6.754028e+002, 5.887100e+002
6.758849e+002, 5.877322e+002
6.763671e+002, 5.866357e+002
6.768492e+002, 5.857567e+002
6.773313e+002, 5.853392e+002
6.778134e+002, 5.849512e+002
6.782955e+002, 5.841924e+002
6.787776e+002, 5.831708e+002
6.792598e+002, 5.822907e+002
6.797419e+002, 5.819650e+002
6.802240e+002, 5.813922e+002
6.807061e+002, 5.797023e+002
6.811882e+002, 5.776161e+002
6.816703e+002, 5.762402e+002
6.821525e+002, 5.757650e+002
6.826346e+002, 5.758357e+002
6.831167e+002, 5.762668e+002
6.835988e+002, 5.768809e+002
6.840809e+002, 5.767685e+002
6.845630e+002, 5.756353e+002
6.850452e+002, 5.744228e+002
6.855273e+002, 5.726689e+002
6.860094e+002, 5.713971e+002
6.864915e+002, 5.716451e+002
6.869736e+002, 5.728996e+002
6.874557e+002, 5.736053e+002
6.879379e+002, 5.730414e+002
6.884200e+002, 5.719824e+002
6.889021e+002, 5.708077e+002
6.893842e+002, 5.697083e+002
6.898663e+002, 5.692386e+002
6.903484e+002, 5.694830e+002
6.908306e+002, 5.699283e+002
6.913127e+002, 5.702419e+002
6.917948e+002, 5.703720e+002
6.922769e+002, 5.700387e+002
6.927590e+002, 5.687473e+002
6.932411e+002, 5.677897e+002
6.937233e+002, 5.676776e+002
6.942054e+002, 5.674982e+002
6.946875e+002, 5.665313e+002
6.951696e+002, 5.650486e+002
6.956517e+002, 5.637988e+002
6.961339e+002, 5.630984e+002
6.966160e+002, 5.627844e+002
6.970981e+002, 5.628829e+002
6.975802e+002, 5.632297e+002
6.980623e+002, 5.631886e+002
6.985444e+002, 5.626432e+002
6.990266e+002, 5.619927e+002
6.995087e+002, 5.614587e+002
6.999908e+002, 5.610664e+002
7.004729e+002, 5.609403e+002
7.009550e+002, 5.616732e+002
7.014371e+002, 5.617380e+002
7.019193e+002, 5.602206e+002
7.024014e+002, 5.588538e+002
7.028835e+002, 5.590943e+002
7.033656e+002, 5.602620e+002
7.038477e+002, 5.607050e+002
7.043298e+002, 5.596641e+002
7.048120e+002, 5.581817e+002
7.052941e+002, 5.576019e+002
7.057762e+002, 5.577255e+002
7.062583e+002, 5.575123e+002
7.067404e+002, 5.568166e+002
7.072225e+002, 5.561469e+002
7.077046e+002, 5.557504e+002
7.081867e+002, 5.556129e+002
7.086688e+002, 5.557567e+002
7.091509e+002, 5.564427e+002
7.096331e+002, 5.567241e+002
7.101152e+002, 5.559521e+002
7.105973e+002, 5.553240e+002
7.110794e+002, 5.558174e+002
7.115615e+002, 5.568840e+002
7.120436e+002, 5.574882e+002
7.125258e+002, 5.572568e+002
7.130079e+002, 5.566375e+002
7.134900e+002, 5.561747e+002
7.139721e+002, 5.557898e+002
7.144542e+002, 5.548026e+002
7.149363e+002, 5.529865e+002
7.154185e+002, 5.520234e+002
7.159006e+002, 5.531961e+002
7.163827e+002, 5.551244e+002
7.168648e+002, 5.551772e+002
7.173469e+002, 5.528544e+002
7.178290e+002, 5.518614e+002
7.183112e+002, 5.538790e+002
7.187933e+002, 5.558309e+002
7.192754e+002, 5.564031e+002
7.197575e+002, 5.558555e+002
7.202396e+002, 5.543416e+002
7.207217e+002, 5.520756e+002
7.212039e+002, 5.499946e+002
7.216860e+002, 5.489301e+002
7.221681e+002, 5.488095e+002
7.226502e+002, 5.496573e+002
7.231323e+002, 5.516815e+002
7.236144e+002, 5.529888e+002
7.240966e+002, 5.529161e+002
7.245787e+002, 5.519760e+002
7.250608e+002, 5.503676e+002
7.255429e+002, 5.481144e+002
7.260250e+002, 5.469689e+002
7.265071e+002, 5.480000e+002
7.269893e+002, 5.489825e+002
7.274714e+002, 5.491447e+002
7.279535e+002, 5.488238e+002
7.284356e+002, 5.482770e+002
7.289177e+002, 5.476361e+002
7.293998e+002, 5.471066e+002
7.298820e+002, 5.468337e+002
7.303641e+002, 5.467750e+002
7.308462e+002, 5.468953e+002
7.313283e+002, 5.472027e+002
7.318104e+002, 5.474380e+002
7.322925e+002, 5.476619e+002
7.327747e+002, 5.475180e+002
7.332568e+002, 5.464544e+002
7.337389e+002, 5.447249e+002
7.342210e+002, 5.436776e+002
7.347031e+002, 5.433558e+002
7.351852e+002, 5.436356e+002
7.356674e+002, 5.451696e+002
7.361495e+002, 5.467486e+002
7.366316e+002, 5.471824e+002
7.371137e+002, 5.467762e+002
7.375958e+002, 5.467596e+002
7.380779e+002, 5.478051e+002
7.385601e+002, 5.488848e+002
7.390422e+002, 5.481555e+002
7.395243e+002, 5.458669e+002
7.400064e+002, 5.444344e+002
7.404885e+002, 5.441417e+002
7.409706e+002, 5.443261e+002
7.414528e+002, 5.447742e+002
7.419349e+002, 5.453661e+002
7.424170e+002, 5.458909e+002
7.428991e+002, 5.464816e+002
7.433812e+002, 5.465906e+002
7.438633e+002, 5.459056e+002
7.443455e+002, 5.450141e+002
7.448276e+002, 5.440385e+002
7.453097e+002, 5.431352e+002
7.457918e+002, 5.424512e+002
7.462739e+002, 5.420472e+002
7.467560e+002, 5.419966e+002
7.472382e+002, 5.427753e+002
7.477203e+002, 5.438978e+002
7.482024e+002, 5.436477e+002
7.486845e+002, 5.419882e+002
7.491666e+002, 5.404424e+002
7.496487e+002, 5.394462e+002
7.501309e+002, 5.389373e+002
7.506130e+002, 5.389424e+002
7.510951e+002, 5.394999e+002
7.515772e+002, 5.398224e+002
7.520593e+002, 5.399507e+002
7.525414e+002, 5.398007e+002
7.530236e+002, 5.389067e+002
7.535057e+002, 5.380373e+002
7.539878e+002, 5.380336e+002
7.544699e+002, 5.387653e+002
7.549520e+002, 5.394017e+002
7.554341e+002, 5.394822e+002
7.559163e+002, 5.392213e+002
7.563984e+002, 5.388383e+002
7.568805e+002, 5.383624e+002
7.573626e+002, 5.379465e+002
7.578447e+002, 5.376202e+002
7.583268e+002, 5.372477e+002
7.588090e+002, 5.366514e+002
7.592911e+002, 5.360252e+002
7.597732e+002, 5.360461e+002
7.602553e+002, 5.375330e+002
7.607374e+002, 5.381880e+002
7.612195e+002, 5.372951e+002
7.617017e+002, 5.364050e+002
7.621838e+002, 5.361219e+002
7.626659e+002, 5.363810e+002
7.631480e+002, 5.372070e+002
7.636301e+002, 5.386467e+002
7.641122e+002, 5.397186e+002
7.645944e+002, 5.390912e+002
7.650765e+002, 5.379523e+002
7.655586e+002, 5.384545e+002
7.660407e+002, 5.403490e+002
7.665228e+002, 5.419420e+002
7.670049e+002, 5.426100e+002
7.674871e+002, 5.423642e+002
7.679692e+002, 5.410295e+002
7.684513e+002, 5.385071e+002
7.689334e+002, 5.370670e+002
7.694155e+002, 5.370881e+002
7.698976e+002, 5.375748e+002
7.703798e+002, 5.387866e+002
7.708619e+002, 5.399789e+002
7.713440e+002, 5.405048e+002
7.718261e+002, 5.404388e+002
7.723082e+002, 5.403383e+002
7.727903e+002, 5.404035e+002
7.732725e+002, 5.404835e+002
7.737546e+002, 5.404305e+002
7.742367e+002, 5.403461e+002
7.747188e+002, 5.404757e+002
7.752009e+002, 5.407869e+002
7.756830e+002, 5.409296e+002
7.761652e+002, 5.406714e+002
7.766473e+002, 5.401097e+002
7.771294e+002, 5.393570e+002
7.776115e+002, 5.383000e+002
7.780936e+002, 5.378290e+002
7.785757e+002, 5.381386e+002
7.790579e+002, 5.388001e+002
7.795400e+002, 5.399869e+002
7.800221e+002, 5.412083e+002
7.805042e+002, 5.415881e+002
7.809863e+002, 5.409614e+002
7.814684e+002, 5.402165e+002
7.819506e+002, 5.394608e+002
7.824327e+002, 5.387587e+002
7.829148e+002, 5.381388e+002
7.833969e+002, 5.376004e+002
7.838790e+002, 5.371967e+002
7.843611e+002, 5.369113e+002
7.848433e+002, 5.365446e+002
7.853254e+002, 5.358434e+002
7.858075e+002, 5.349635e+002
7.862896e+002, 5.343715e+002
7.867717e+002, 5.340706e+002
7.872538e+002, 5.339821e+002
7.877360e+002, 5.341669e+002
7.882181e+002, 5.342933e+002
7.887002e+002, 5.339005e+002
7.891823e+002, 5.331281e+002
7.896644e+002, 5.331846e+002
7.901465e+002, 5.351500e+002
7.906286e+002, 5.363538e+002
7.911107e+002, 5.365453e+002
7.915928e+002, 5.359696e+002
7.920750e+002, 5.342990e+002
7.925571e+002, 5.320891e+002
7.930392e+002, 5.303687e+002
7.935213e+002, 5.295256e+002
7.940034e+002, 5.291063e+002
7.944855e+002, 5.289007e+002
7.949677e+002, 5.287698e+002
7.954498e+002, 5.284296e+002
7.959319e+002, 5.278914e+002
7.964140e+002, 5.272734e+002
7.968961e+002, 5.265888e+002
7.973782e+002, 5.262083e+002
7.978604e+002, 5.267881e+002
7.983425e+002, 5.284080e+002
7.988246e+002, 5.289695e+002
7.993067e+002, 5.277300e+002
7.997888e+002, 5.267721e+002
8.002709e+002, 5.268264e+002
8.007531e+002, 5.271746e+002
8.012352e+002, 5.274741e+002
8.017173e+002, 5.276418e+002
8.021994e+002, 5.273716e+002
8.026815e+002, 5.260420e+002
8.031636e+002, 5.250519e+002
8.036458e+002, 5.252905e+002
8.041279e+002, 5.261741e+002
8.046100e+002, 5.273541e+002
8.050921e+002, 5.285335e+002
8.055742e+002, 5.290390e+002
8.060563e+002, 5.284769e+002
8.065385e+002, 5.274108e+002
8.070206e+002, 5.267151e+002
8.075027e+002, 5.263619e+002
8.079848e+002, 5.259514e+002
8.084669e+002, 5.254529e+002
8.089490e+002, 5.249669e+002
8.094312e+002, 5.245363e+002
8.099133e+002, 5.241525e+002
8.103954e+002, 5.239086e+002
8.108775e+002, 5.239226e+002
8.113596e+002, 5.232070e+002
8.118417e+002, 5.211789e+002
8.123239e+002, 5.191829e+002
8.128060e+002, 5.172537e+002
8.132881e+002, 5.157610e+002
8.137702e+002, 5.152465e+002
8.142523e+002, 5.155525e+002
8.147344e+002, 5.159140e+002
8.152166e+002, 5.159572e+002
8.156987e+002, 5.158962e+002
8.161808e+002, 5.159645e+002
8.166629e+002, 5.160911e+002
8.171450e+002, 5.160145e+002
8.176271e+002, 5.157587e+002
8.181093e+002, 5.158084e+002
8.185914e+002, 5.164636e+002
8.190735e+002, 5.174351e+002
8.195556e+002, 5.182826e+002
8.200377e+002, 5.191268e+002
8.205198e+002, 5.189402e+002
8.210020e+002, 5.169996e+002
8.214841e+002, 5.153912e+002
8.219662e+002, 5.154959e+002
8.224483e+002, 5.158852e+002
8.229304e+002, 5.146821e+002
8.234125e+002, 5.119529e+002
8.238947e+002, 5.101151e+002
8.243768e+002, 5.102817e+002
8.248589e+002, 5.106833e+002
8.253410e+002, 5.104194e+002
8.258231e+002, 5.100789e+002
8.263052e+002, 5.105481e+002
8.267874e+002, 5.116531e+002
8.272695e+002, 5.124204e+002
8.277516e+002, 5.123014e+002
8.282337e+002, 5.116449e+002
8.287158e+002, 5.107366e+002
8.291979e+002, 5.096966e+002
8.296801e+002, 5.091346e+002
8.301622e+002, 5.091089e+002
8.306443e+002, 5.088851e+002
8.311264e+002, 5.080303e+002
8.316085e+002, 5.069898e+002
8.320906e+002, 5.065211e+002
8.325728e+002, 5.067274e+002
8.330549e+002, 5.067319e+002
8.335370e+002, 5.062172e+002
8.340191e+002, 5.059540e+002
8.345012e+002, 5.065124e+002
8.349833e+002, 5.070562e+002
8.354655e+002, 5.067978e+002
8.359476e+002, 5.058609e+002
8.364297e+002, 5.050183e+002
8.369118e+002, 5.043857e+002
8.373939e+002, 5.040844e+002
8.378760e+002, 5.044183e+002
8.383582e+002, 5.049642e+002
8.388403e+002, 5.052298e+002
8.393224e+002, 5.052368e+002
8.398045e+002, 5.052980e+002
8.402866e+002, 5.055645e+002
8.407687e+002, 5.057285e+002
8.412509e+002, 5.052816e+002
8.417330e+002, 5.043361e+002
8.422151e+002, 5.034483e+002
8.426972e+002, 5.026091e+002
8.431793e+002, 5.022660e+002
8.436614e+002, 5.027491e+002
8.441436e+002, 5.032911e+002
8.446257e+002, 5.028656e+002
8.451078e+002, 5.015091e+002
8.455899e+002, 5.010500e+002
8.460720e+002, 5.028330e+002
8.465541e+002, 5.035199e+002
8.470363e+002, 5.016039e+002
8.475184e+002, 4.996851e+002
8.480005e+002, 4.996039e+002
8.484826e+002, 5.007379e+002
8.489647e+002, 5.014995e+002
8.494468e+002, 5.014233e+002
8.499290e+002, 5.012466e+002
8.504111e+002, 5.015148e+002
8.508932e+002, 5.017619e+002
8.513753e+002, 5.012950e+002
8.518574e+002, 5.004576e+002
8.523395e+002, 5.002268e+002
8.528217e+002, 5.008295e+002
8.533038e+002, 5.013776e+002
8.537859e+002, 5.009285e+002
8.542680e+002, 4.998209e+002
8.547501e+002, 4.989620e+002
8.552322e+002, 4.983510e+002
8.557144e+002, 4.985628e+002
8.561965e+002, 4.998837e+002
8.566786e+002, 5.013155e+002
8.571607e+002, 5.022007e+002
8.576428e+002, 5.025616e+002
8.581249e+002, 5.024624e+002
8.586071e+002, 5.018070e+002
8.590892e+002, 5.008829e+002
8.595713e+002, 4.991216e+002
8.600534e+002, 4.977560e+002
8.605355e+002, 4.975749e+002
8.610176e+002, 4.978166e+002
8.614998e+002, 4.973428e+002
8.619819e+002, 4.961016e+002
8.624640e+002, 4.955562e+002
8.629461e+002, 4.971018e+002
8.634282e+002, 4.986621e+002
8.639103e+002, 4.985441e+002
8.643925e+002, 4.977037e+002
8.648746e+002, 4.975356e+002
8.653567e+002, 4.980891e+002
8.658388e+002, 4.985705e+002
8.663209e+002, 4.985172e+002
8.668030e+002, 4.981878e+002
8.672852e+002, 4.979967e+002
8.677673e+002, 4.978882e+002
8.682494e+002, 4.974704e+002
8.687315e+002, 4.967081e+002
8.692136e+002, 4.961496e+002
8.696957e+002, 4.960347e+002
8.701779e+002, 4.961837e+002
8.706600e+002, 4.964052e+002
8.711421e+002, 4.967026e+002
8.716242e+002, 4.967276e+002
8.721063e+002, 4.962118e+002
8.725884e+002, 4.958949e+002
8.730705e+002, 4.962063e+002
8.735526e+002, 4.964619e+002
8.740347e+002, 4.960454e+002
8.745168e+002, 4.952814e+002
8.749990e+002, 4.950431e+002
8.754811e+002, 4.957343e+002
8.759632e+002, 4.961395e+002
8.764453e+002, 4.958352e+002
8.769274e+002, 4.950946e+002
8.774095e+002, 4.935632e+002
8.778917e+002, 4.919519e+002
8.783738e+002, 4.915180e+002
8.788559e+002, 4.924497e+002
8.793380e+002, 4.937101e+002
8.798201e+002, 4.946372e+002
8.803022e+002, 4.952602e+002
8.807844e+002, 4.956862e+002
8.812665e+002, 4.958550e+002
8.817486e+002, 4.952107e+002
8.822307e+002, 4.937586e+002
8.827128e+002, 4.930639e+002
8.831949e+002, 4.941771e+002
8.836771e+002, 4.964059e+002
8.841592e+002, 4.984295e+002
8.846413e+002, 5.003088e+002
8.851234e+002, 5.015327e+002
8.856055e+002, 5.020331e+002
8.860876e+002, 5.020394e+002
8.865698e+002, 5.016831e+002
8.870519e+002, 5.008030e+002
8.875340e+002, 4.986211e+002
8.880161e+002, 4.953336e+002
8.884982e+002, 4.939056e+002
8.889803e+002, 4.959640e+002
8.894625e+002, 4.977025e+002
8.899446e+002, 4.980882e+002
8.904267e+002, 4.983177e+002
8.909088e+002, 4.996113e+002
8.913909e+002, 5.012689e+002
8.918730e+002, 5.016203e+002
8.923552e+002, 5.001543e+002
8.928373e+002, 4.988347e+002
8.933194e+002, 4.989247e+002
8.938015e+002, 4.997818e+002
8.942836e+002, 5.010804e+002
8.947657e+002, 5.025151e+002
8.952479e+002, 5.034476e+002
8.957300e+002, 5.037910e+002
8.962121e+002, 5.039770e+002
8.966942e+002, 5.042948e+002
8.971763e+002, 5.047430e+002
8.976584e+002, 5.052393e+002
8.981406e+002, 5.058187e+002
8.986227e+002, 5.069674e+002
8.991048e+002, 5.087714e+002
8.995869e+002, 5.106249e+002
9.000690e+002, 5.123457e+002
9.005511e+002, 5.136570e+002
9.010333e+002, 5.139600e+002
9.015154e+002, 5.131514e+002
9.019975e+002, 5.137200e+002
9.024796e+002, 5.166359e+002
9.029617e+002, 5.191398e+002
9.034438e+002, 5.205670e+002
9.039260e+002, 5.215819e+002
9.044081e+002, 5.224223e+002
9.048902e+002, 5.232265e+002
9.053723e+002, 5.243026e+002
9.058544e+002, 5.256267e+002
9.063365e+002, 5.273796e+002
9.068187e+002, 5.297396e+002
9.073008e+002, 5.323908e+002
9.077829e+002, 5.354510e+002
9.082650e+002, 5.384943e+002
9.087471e+002, 5.407127e+002
9.092292e+002, 5.421752e+002
9.097114e+002, 5.442006e+002
9.101935e+002, 5.478494e+002
9.106756e+002, 5.519020e+002
9.111577e+002, 5.549014e+002
9.116398e+002, 5.575229e+002
9.121219e+002, 5.612067e+002
9.126041e+002, 5.658342e+002
9.130862e+002, 5.701257e+002
9.135683e+002, 5.734734e+002
9.140504e+002, 5.765692e+002
9.145325e+002, 5.802919e+002
9.150146e+002, 5.845909e+002
9.154968e+002, 5.893054e+002
9.159789e+002, 5.944545e+002
9.164610e+002, 5.999542e+002
9.169431e+002, 6.059698e+002
9.174252e+002, 6.116986e+002
9.179073e+002, 6.164865e+002
9.183895e+002, 6.205212e+002
9.188716e+002, 6.243639e+002
9.193537e+002, 6.272648e+002
9.198358e+002, 6.320593e+002
9.203179e+002, 6.403990e+002
9.208000e+002, 6.482491e+002
9.212822e+002, 6.531473e+002
9.217643e+002, 6.573214e+002
9.222464e+002, 6.631713e+002
9.227285e+002, 6.706748e+002
9.232106e+002, 6.783217e+002
9.236927e+002, 6.854330e+002
9.241749e+002, 6.932875e+002
9.246570e+002, 7.026288e+002
9.251391e+002, 7.124830e+002
9.256212e+002, 7.223033e+002
9.261033e+002, 7.319384e+002
9.265854e+002, 7.409869e+002
9.270676e+002, 7.493013e+002
9.275497e+002, 7.583190e+002
9.280318e+002, 7.688387e+002
9.285139e+002, 7.805735e+002
9.289960e+002, 7.932804e+002
9.294781e+002, 8.070897e+002
9.299603e+002, 8.226573e+002
9.304424e+002, 8.398649e+002
9.309245e+002, 8.572426e+002
9.314066e+002, 8.737596e+002
9.318887e+002, 8.904958e+002
9.323708e+002, 9.086260e+002
9.328530e+002, 9.283147e+002
9.333351e+002, 9.500927e+002
9.338172e+002, 9.739766e+002
9.342993e+002, 1.000627e+003
9.347814e+002, 1.030111e+003
9.352635e+002, 1.062276e+003
9.357457e+002, 1.097083e+003
9.362278e+002, 1.134266e+003
9.367099e+002, 1.171904e+003
9.371920e+002, 1.209253e+003
9.376741e+002, 1.250655e+003
9.381563e+002, 1.297380e+003
9.386384e+002, 1.346854e+003
9.391205e+002, 1.399193e+003
9.396026e+002, 1.452867e+003
9.400847e+002, 1.506106e+003
9.405668e+002, 1.559581e+003
9.410490e+002, 1.608083e+003
9.415311e+002, 1.653406e+003
9.420132e+002, 1.691728e+003
9.424953e+002, 1.724635e+003
9.429774e+002, 1.748284e+003
9.434595e+002, 1.760309e+003
9.439417e+002, 1.760822e+003
9.444238e+002, 1.749972e+003
9.449059e+002, 1.726973e+003
9.453880e+002, 1.695701e+003
9.458701e+002, 1.656325e+003
9.463522e+002, 1.610247e+003
9.468344e+002, 1.556355e+003
9.473165e+002, 1.497897e+003
9.477986e+002, 1.437629e+003
9.482807e+002, 1.377131e+003
9.487628e+002, 1.318458e+003
9.492449e+002, 1.262323e+003
9.497271e+002, 1.209394e+003
9.502092e+002, 1.160298e+003
9.506913e+002, 1.114472e+003
9.511734e+002, 1.069994e+003
9.516555e+002, 1.027640e+003
9.521376e+002, 9.901273e+002
9.526198e+002, 9.582614e+002
9.531019e+002, 9.300998e+002
9.535840e+002, 9.038969e+002
9.540661e+002, 8.796623e+002
9.545482e+002, 8.573683e+002
9.550303e+002, 8.369735e+002
9.555124e+002, 8.179076e+002
9.559945e+002, 8.000036e+002
9.564766e+002, 7.852313e+002
9.569587e+002, 7.746786e+002
9.574409e+002, 7.672040e+002
9.579230e+002, 7.614237e+002
9.584051e+002, 7.572516e+002
9.588872e+002, 7.517029e+002
9.593693e+002, 7.438159e+002
9.598514e+002, 7.386556e+002
9.603336e+002, 7.376317e+002
9.608157e+002, 7.388889e+002
9.612978e+002, 7.414987e+002
9.617799e+002, 7.451194e+002
9.622620e+002, 7.488314e+002
9.627441e+002, 7.527051e+002
9.632263e+002, 7.564501e+002
9.637084e+002, 7.604719e+002
9.641905e+002, 7.637936e+002
9.646726e+002, 7.670407e+002
9.651547e+002, 7.687973e+002
9.656368e+002, 7.684412e+002
9.661190e+002, 7.656200e+002
9.666011e+002, 7.589991e+002
9.670832e+002, 7.479055e+002
9.675653e+002, 7.340378e+002
9.680474e+002, 7.160381e+002
9.685295e+002, 6.971816e+002
9.690117e+002, 6.788316e+002
9.694938e+002, 6.611013e+002
9.699759e+002, 6.436783e+002
9.704580e+002, 6.267585e+002
9.709401e+002, 6.119484e+002
9.714222e+002, 6.006420e+002
9.719044e+002, 5.906003e+002
9.723865e+002, 5.803818e+002
9.728686e+002, 5.707344e+002
9.733507e+002, 5.626727e+002
9.738328e+002, 5.558708e+002
9.743149e+002, 5.494488e+002
9.747971e+002, 5.431612e+002
9.752792e+002, 5.373840e+002
9.757613e+002, 5.324394e+002
9.762434e+002, 5.281913e+002
9.767255e+002, 5.245161e+002
9.772076e+002, 5.213831e+002
9.776898e+002, 5.188771e+002
9.781719e+002, 5.168491e+002
9.786540e+002, 5.145141e+002
9.791361e+002, 5.114904e+002
9.796182e+002, 5.090132e+002
9.801003e+002, 5.091595e+002
9.805825e+002, 5.108883e+002
9.810646e+002, 5.106425e+002
9.815467e+002, 5.086178e+002
9.820288e+002, 5.062989e+002
9.825109e+002, 5.039896e+002
9.829930e+002, 5.015308e+002
9.834752e+002, 4.987585e+002
9.839573e+002, 4.961191e+002
9.844394e+002, 4.945869e+002
9.849215e+002, 4.941743e+002
9.854036e+002, 4.933763e+002
9.858857e+002, 4.921117e+002
9.863679e+002, 4.908521e+002
9.868500e+002, 4.895440e+002
9.873321e+002, 4.888361e+002
9.878142e+002, 4.893556e+002
9.882963e+002, 4.907905e+002
9.887784e+002, 4.923001e+002
9.892606e+002, 4.943117e+002
9.897427e+002, 4.947633e+002
9.902248e+002, 4.928048e+002
9.907069e+002, 4.908859e+002
9.911890e+002, 4.894579e+002
9.916711e+002, 4.887036e+002
9.921533e+002, 4.889200e+002
9.926354e+002, 4.899941e+002
9.931175e+002, 4.912708e+002
9.935996e+002, 4.930229e+002
9.940817e+002, 4.944828e+002
9.945638e+002, 4.954682e+002
9.950460e+002, 4.963777e+002
9.955281e+002, 4.972439e+002
9.960102e+002, 4.981911e+002
9.964923e+002, 4.995958e+002
9.969744e+002, 5.013108e+002
9.974565e+002, 5.022104e+002
9.979387e+002, 5.011174e+002
9.984208e+002, 5.008036e+002
9.989029e+002, 5.032909e+002
9.993850e+002, 5.053730e+002
9.998671e+002, 5.049615e+002
1.000349e+003, 5.028948e+002
1.000831e+003, 5.002563e+002
1.001313e+003, 4.973138e+002
1.001796e+003, 4.944364e+002
1.002278e+003, 4.916142e+002
1.002760e+003, 4.891539e+002
1.003242e+003, 4.873602e+002
1.003724e+003, 4.858910e+002
1.004206e+003, 4.845312e+002
1.004688e+003, 4.831945e+002
1.005170e+003, 4.816797e+002
1.005653e+003, 4.799851e+002
1.006135e+003, 4.785394e+002
1.006617e+003, 4.776079e+002
1.007099e+003, 4.770318e+002
1.007581e+003, 4.771083e+002
1.008063e+003, 4.771703e+002
1.008545e+003, 4.759687e+002
1.009027e+003, 4.738953e+002
1.009509e+003, 4.722704e+002
1.009992e+003, 4.715687e+002
1.010474e+003, 4.714048e+002
1.010956e+003, 4.718167e+002
1.011438e+003, 4.721643e+002
1.011920e+003, 4.711432e+002
1.012402e+003, 4.693990e+002
1.012884e+003, 4.685070e+002
1.013366e+003, 4.684907e+002
1.013849e+003, 4.683661e+002
1.014331e+003, 4.677120e+002
1.014813e+003, 4.672192e+002
1.015295e+003, 4.679477e+002
1.015777e+003, 4.691855e+002
1.016259e+003, 4.689077e+002
1.016741e+003, 4.674753e+002
1.017223e+003, 4.665014e+002
1.017705e+003, 4.662393e+002
1.018188e+003, 4.665890e+002
1.018670e+003, 4.675311e+002
1.019152e+003, 4.685085e+002
1.019634e+003, 4.686898e+002
1.020116e+003, 4.682613e+002
1.020598e+003, 4.681900e+002
1.021080e+003, 4.684554e+002
1.021562e+003, 4.684232e+002
1.022044e+003, 4.679598e+002
1.022527e+003, 4.676401e+002
1.023009e+003, 4.677781e+002
1.023491e+003, 4.683427e+002
1.023973e+003, 4.694466e+002
1.024455e+003, 4.710083e+002
1.024937e+003, 4.714557e+002
1.025419e+003, 4.706010e+002
1.025901e+003, 4.702106e+002
1.026384e+003, 4.706179e+002
1.026866e+003, 4.715454e+002
1.027348e+003, 4.729564e+002
1.027830e+003, 4.744803e+002
1.028312e+003, 4.753129e+002
1.028794e+003, 4.753985e+002
1.029276e+003, 4.764693e+002
1.029758e+003, 4.788470e+002
1.030240e+003, 4.810453e+002
1.030723e+003, 4.825658e+002
1.031205e+003, 4.844082e+002
1.031687e+003, 4.873058e+002
1.032169e+003, 4.908713e+002
1.032651e+003, 4.943452e+002
1.033133e+003, 4.976996e+002
1.033615e+003, 5.010653e+002
1.034097e+003, 5.040121e+002
1.034579e+003, 5.079630e+002
1.035062e+003, 5.136458e+002
1.035544e+003, 5.197040e+002
1.036026e+003, 5.253318e+002
1.036508e+003, 5.306180e+002
1.036990e+003, 5.357668e+002
1.037472e+003, 5.408446e+002
1.037954e+003, 5.453833e+002
1.038436e+003, 5.498666e+002
1.038919e+003, 5.529833e+002
1.039401e+003, 5.547040e+002
1.039883e+003, 5.547708e+002
1.040365e+003, 5.525048e+002
1.040847e+003, 5.486143e+002
1.041329e+003, 5.444231e+002
1.041811e+003, 5.397230e+002
1.042293e+003, 5.357771e+002
1.042776e+003, 5.337764e+002
1.043258e+003, 5.308741e+002
1.043740e+003, 5.262465e+002
1.044222e+003, 5.208695e+002
1.044704e+003, 5.146407e+002
1.045186e+003, 5.083656e+002
1.045668e+003, 5.035419e+002
1.046150e+003, 5.003221e+002
1.046632e+003, 4.982620e+002
1.047115e+003, 4.992737e+002
1.047597e+003, 4.987314e+002
1.048079e+003, 4.940206e+002
1.048561e+003, 4.888448e+002
1.049043e+003, 4.858208e+002
1.049525e+003, 4.841307e+002
1.050007e+003, 4.819531e+002
1.050489e+003, 4.790361e+002
1.050971e+003, 4.764431e+002
1.051454e+003, 4.741856e+002
1.051936e+003, 4.725562e+002
1.052418e+003, 4.720948e+002
1.052900e+003, 4.718536e+002
1.053382e+003, 4.711173e+002
1.053864e+003, 4.701180e+002
1.054346e+003, 4.693470e+002
1.054828e+003, 4.688751e+002
1.055311e+003, 4.684781e+002
1.055793e+003, 4.680053e+002
1.056275e+003, 4.677250e+002
1.056757e+003, 4.674538e+002
1.057239e+003, 4.676769e+002
1.057721e+003, 4.691357e+002
1.058203e+003, 4.711874e+002
1.058685e+003, 4.727221e+002
1.059167e+003, 4.735727e+002
1.059650e+003, 4.743804e+002
1.060132e+003, 4.756123e+002
1.060614e+003, 4.764888e+002
1.061096e+003, 4.759761e+002
1.061578e+003, 4.757197e+002
1.062060e+003, 4.767441e+002
1.062542e+003, 4.790089e+002
1.063024e+003, 4.825696e+002
1.063506e+003, 4.873087e+002
1.063989e+003, 4.919220e+002
1.064471e+003, 4.952430e+002
1.064953e+003, 4.993651e+002
1.065435e+003, 5.060498e+002
1.065917e+003, 5.129705e+002
1.066399e+003, 5.176041e+002
1.066881e+003, 5.216464e+002
1.067363e+003, 5.277784e+002
1.067846e+003, 5.363107e+002
1.068328e+003, 5.459521e+002
1.068810e+003, 5.570629e+002
1.069292e+003, 5.677232e+002
1.069774e+003, 5.777131e+002
1.070256e+003, 5.862900e+002
1.070738e+003, 5.940551e+002
1.071220e+003, 5.994452e+002
1.071703e+003, 6.003069e+002
1.072185e+003, 5.965631e+002
1.072667e+003, 5.897604e+002
1.073149e+003, 5.794113e+002
1.073631e+003, 5.685511e+002
1.074113e+003, 5.584949e+002
1.074595e+003, 5.485229e+002
1.075077e+003, 5.377332e+002
1.075559e+003, 5.269452e+002
1.076042e+003, 5.168612e+002
1.076524e+003, 5.077884e+002
1.077006e+003, 5.003802e+002
1.077488e+003, 4.951547e+002
1.077970e+003, 4.905617e+002
1.078452e+003, 4.857406e+002
1.078934e+003, 4.814295e+002
1.079416e+003, 4.782498e+002
1.079898e+003, 4.757497e+002
1.080380e+003, 4.734333e+002
1.080863e+003, 4.712380e+002
1.081345e+003, 4.692621e+002
1.081827e+003, 4.675831e+002
1.082309e+003, 4.659136e+002
1.082791e+003, 4.639401e+002
1.083273e+003, 4.621359e+002
1.083755e+003, 4.607274e+002
1.084237e+003, 4.596901e+002
1.084720e+003, 4.589286e+002
1.085202e+003, 4.585099e+002
1.085684e+003, 4.587227e+002
1.086166e+003, 4.597127e+002
1.086648e+003, 4.605909e+002
1.087130e+003, 4.611480e+002
1.087612e+003, 4.612881e+002
1.088094e+003, 4.610356e+002
1.088577e+003, 4.602812e+002
1.089059e+003, 4.588308e+002
1.089541e+003, 4.568314e+002
1.090023e+003, 4.542513e+002
1.090505e+003, 4.510654e+002
1.090987e+003, 4.491861e+002
1.091469e+003, 4.501773e+002
1.091951e+003, 4.514810e+002
1.092433e+003, 4.525053e+002
1.092916e+003, 4.529420e+002
1.093398e+003, 4.522986e+002
1.093880e+003, 4.510176e+002
1.094362e+003, 4.498741e+002
1.094844e+003, 4.489527e+002
1.095326e+003, 4.476457e+002
1.095808e+003, 4.447992e+002
1.096290e+003, 4.429776e+002
1.096772e+003, 4.439019e+002
1.097255e+003, 4.451620e+002
1.097737e+003, 4.451866e+002
1.098219e+003, 4.446317e+002
1.098701e+003, 4.444001e+002
1.099183e+003, 4.445736e+002
1.099665e+003, 4.449383e+002
1.100147e+003, 4.457150e+002
1.100629e+003, 4.461039e+002
1.101112e+003, 4.454564e+002
1.101594e+003, 4.448926e+002
1.102076e+003, 4.455045e+002
1.102558e+003, 4.460619e+002
1.103040e+003, 4.448739e+002
1.103522e+003, 4.424340e+002
1.104004e+003, 4.408793e+002
1.104486e+003, 4.406901e+002
1.104969e+003, 4.408232e+002
1.105451e+003, 4.412857e+002
1.105933e+003, 4.417987e+002
1.106415e+003, 4.419762e+002
1.106897e+003, 4.424310e+002
1.107379e+003, 4.443683e+002
1.107861e+003, 4.468130e+002
1.108343e+003, 4.472822e+002
1.108825e+003, 4.452621e+002
1.109307e+003, 4.432223e+002
1.109790e+003, 4.407891e+002
1.110272e+003, 4.391879e+002
1.110754e+003, 4.391162e+002
1.111236e+003, 4.394756e+002
1.111718e+003, 4.397312e+002
1.112200e+003, 4.399377e+002
1.112682e+003, 4.403102e+002
1.113164e+003, 4.408860e+002
1.113647e+003, 4.408631e+002
1.114129e+003, 4.397350e+002
1.114611e+003, 4.388492e+002
1.115093e+003, 4.381609e+002
1.115575e+003, 4.379402e+002
1.116057e+003, 4.388861e+002
1.116539e+003, 4.398142e+002
1.117021e+003, 4.391692e+002
1.117504e+003, 4.372044e+002
1.117986e+003, 4.357984e+002
1.118468e+003, 4.351253e+002
1.118950e+003, 4.345894e+002
1.119432e+003, 4.340273e+002
1.119914e+003, 4.339818e+002
1.120396e+003, 4.350382e+002
1.120878e+003, 4.359575e+002
1.121360e+003, 4.354939e+002
1.121843e+003, 4.342132e+002
1.122325e+003, 4.338302e+002
1.122807e+003, 4.345453e+002
1.123289e+003, 4.349353e+002
1.123771e+003, 4.349023e+002
1.124253e+003, 4.348562e+002
1.124735e+003, 4.348065e+002
1.125217e+003, 4.350125e+002
1.125699e+003, 4.356798e+002
1.126182e+003, 4.366268e+002
1.126664e+003, 4.376088e+002
1.127146e+003, 4.385963e+002
1.127628e+003, 4.390074e+002
1.128110e+003, 4.387890e+002
1.128592e+003, 4.383861e+002
1.129074e+003, 4.378050e+002
1.129556e+003, 4.374603e+002
1.130039e+003, 4.375791e+002
1.130521e+003, 4.378031e+002
1.131003e+003, 4.377725e+002
1.131485e+003, 4.374432e+002
1.131967e+003, 4.363859e+002
1.132449e+003, 4.346972e+002
1.132931e+003, 4.343127e+002
1.133413e+003, 4.353031e+002
1.133896e+003, 4.361148e+002
1.134378e+003, 4.362728e+002
1.134860e+003, 4.362960e+002
1.135342e+003, 4.365963e+002
1.135824e+003, 4.369552e+002
1.136306e+003, 4.369500e+002
1.136788e+003, 4.366681e+002
1.137270e+003, 4.363339e+002
1.137752e+003, 4.360254e+002
1.138234e+003, 4.362610e+002
1.138717e+003, 4.370096e+002
1.139199e+003, 4.373125e+002
1.139681e+003, 4.366778e+002
1.140163e+003, 4.358054e+002
1.140645e+003, 4.353975e+002
1.141127e+003, 4.353440e+002
1.141609e+003, 4.357151e+002
1.142091e+003, 4.361683e+002
1.142574e+003, 4.357211e+002
1.143056e+003, 4.346193e+002
1.143538e+003, 4.340154e+002
1.144020e+003, 4.342278e+002
1.144502e+003, 4.345482e+002
1.144984e+003, 4.344086e+002
1.145466e+003, 4.343338e+002
1.145948e+003, 4.349870e+002
1.146431e+003, 4.359289e+002
1.146913e+003, 4.369427e+002
1.147395e+003, 4.376633e+002
1.147877e+003, 4.371960e+002
1.148359e+003, 4.357701e+002
1.148841e+003, 4.349561e+002
1.149323e+003, 4.355561e+002
1.149805e+003, 4.359354e+002
1.150287e+003, 4.345263e+002
1.150770e+003, 4.331374e+002
1.151252e+003, 4.331475e+002
1.151734e+003, 4.338095e+002
1.152216e+003, 4.344774e+002
1.152698e+003, 4.350289e+002
1.153180e+003, 4.355278e+002
1.153662e+003, 4.359843e+002
1.154144e+003, 4.358747e+002
1.154626e+003, 4.342047e+002
1.155109e+003, 4.331100e+002
1.155591e+003, 4.338731e+002
1.156073e+003, 4.347909e+002
1.156555e+003, 4.346975e+002
1.157037e+003, 4.342030e+002
1.157519e+003, 4.342003e+002
1.158001e+003, 4.346491e+002
1.158483e+003, 4.348292e+002
1.158966e+003, 4.342374e+002
1.159448e+003, 4.343131e+002
1.159930e+003, 4.358115e+002
1.160412e+003, 4.370756e+002
1.160894e+003, 4.377500e+002
1.161376e+003, 4.379540e+002
1.161858e+003, 4.376429e+002
1.162340e+003, 4.369907e+002
1.162822e+003, 4.363555e+002
1.163305e+003, 4.357281e+002
1.163787e+003, 4.352055e+002
1.164269e+003, 4.348372e+002
1.164751e+003, 4.343766e+002
1.165233e+003, 4.336106e+002
1.165715e+003, 4.333422e+002
1.166197e+003, 4.341082e+002
1.166679e+003, 4.351293e+002
1.167161e+003, 4.354831e+002
1.167644e+003, 4.353227e+002
1.168126e+003, 4.352843e+002
1.168608e+003, 4.353750e+002
1.169090e+003, 4.353505e+002
1.169572e+003, 4.351979e+002
1.170054e+003, 4.349691e+002
1.170536e+003, 4.346718e+002
1.171018e+003, 4.346211e+002
1.171500e+003, 4.350495e+002
1.171983e+003, 4.357553e+002
1.172465e+003, 4.366642e+002
1.172947e+003, 4.374950e+002
1.173429e+003, 4.371335e+002
1.173911e+003, 4.358579e+002
1.174393e+003, 4.342601e+002
1.174875e+003, 4.327613e+002
1.175357e+003, 4.329106e+002
1.175840e+003, 4.352058e+002
1.176322e+003, 4.382165e+002
1.176804e+003, 4.411920e+002
1.177286e+003, 4.433448e+002
1.177768e+003, 4.431066e+002
1.178250e+003, 4.418546e+002
1.178732e+003, 4.415711e+002
1.179214e+003, 4.418741e+002
1.179697e+003, 4.416729e+002
1.180179e+003, 4.409396e+002
1.180661e+003, 4.405059e+002
1.181143e+003, 4.407677e+002
1.181625e+003, 4.409120e+002
1.182107e+003, 4.403559e+002
1.182589e+003, 4.396249e+002
1.183071e+003, 4.385809e+002
1.183553e+003, 4.379577e+002
1.184036e+003, 4.393553e+002
1.184518e+003, 4.413028e+002
1.185000e+003, 4.402202e+002
1.185482e+003, 4.359273e+002
1.185964e+003, 4.344648e+002
1.186446e+003, 4.402970e+002
1.186928e+003, 4.440247e+002
1.187410e+003, 4.426077e+002
1.187892e+003, 4.406462e+002
1.188375e+003, 4.398232e+002
1.188857e+003, 4.395323e+002
1.189339e+003, 4.392596e+002
1.189821e+003, 4.390246e+002
1.190303e+003, 4.388277e+002
1.190785e+003, 4.385598e+002
1.191267e+003, 4.390136e+002
1.191749e+003, 4.404093e+002
1.192232e+003, 4.421135e+002
1.192714e+003, 4.446809e+002
1.193196e+003, 4.453831e+002
1.193678e+003, 4.423407e+002
1.194160e+003, 4.382567e+002
1.194642e+003, 4.363904e+002
1.195124e+003, 4.363091e+002
1.195606e+003, 4.366380e+002
1.196089e+003, 4.373250e+002
1.196571e+003, 4.367198e+002
1.197053e+003, 4.348282e+002
1.197535e+003, 4.332703e+002
1.198017e+003, 4.324565e+002
1.198499e+003, 4.320038e+002
1.198981e+003, 4.316889e+002
1.199463e+003, 4.314457e+002
1.199945e+003, 4.311688e+002
1.200427e+003, 4.309198e+002
1.200910e+003, 4.307645e+002
1.201392e+003, 4.307559e+002
1.201874e+003, 4.309170e+002
1.202356e+003, 4.313433e+002
1.202838e+003, 4.324691e+002
1.203320e+003, 4.342673e+002
1.203802e+003, 4.358072e+002
1.204284e+003, 4.367156e+002
1.204767e+003, 4.366956e+002
1.205249e+003, 4.348164e+002
1.205731e+003, 4.326732e+002
1.206213e+003, 4.314473e+002
1.206695e+003, 4.308548e+002
1.207177e+003, 4.305822e+002
1.207659e+003, 4.305382e+002
1.208141e+003, 4.307095e+002
1.208624e+003, 4.311181e+002
1.209106e+003, 4.313024e+002
1.209588e+003, 4.309674e+002
1.210070e+003, 4.306750e+002
1.210552e+003, 4.304269e+002
1.211034e+003, 4.303827e+002
1.211516e+003, 4.308763e+002
1.211998e+003, 4.313873e+002
1.212480e+003, 4.313544e+002
1.212963e+003, 4.309071e+002
1.213445e+003, 4.305148e+002
1.213927e+003, 4.301132e+002
1.214409e+003, 4.301210e+002
1.214891e+003, 4.306945e+002
1.215373e+003, 4.309856e+002
1.215855e+003, 4.307419e+002
1.216337e+003, 4.307284e+002
1.216819e+003, 4.314254e+002
1.217302e+003, 4.321434e+002
1.217784e+003, 4.320119e+002
1.218266e+003, 4.312824e+002
1.218748e+003, 4.307242e+002
1.219230e+003, 4.302777e+002
1.219712e+003, 4.293553e+002
1.220194e+003, 4.281737e+002
1.220676e+003, 4.281520e+002
1.221159e+003, 4.294186e+002
1.221641e+003, 4.305441e+002
1.222123e+003, 4.307577e+002
1.222605e+003, 4.306755e+002
1.223087e+003, 4.303851e+002
1.223569e+003, 4.306588e+002
1.224051e+003, 4.330355e+002
1.224533e+003, 4.360094e+002
1.225016e+003, 4.379370e+002
1.225498e+003, 4.387007e+002
1.225980e+003, 4.382213e+002
1.226462e+003, 4.366964e+002
1.226944e+003, 4.350936e+002
1.227426e+003, 4.337428e+002
1.227908e+003, 4.323574e+002
1.228390e+003, 4.301989e+002
1.228872e+003, 4.288312e+002
1.229354e+003, 4.295979e+002
1.229837e+003, 4.307378e+002
1.230319e+003, 4.311407e+002
1.230801e+003, 4.308221e+002
1.231283e+003, 4.296109e+002
1.231765e+003, 4.275668e+002
1.232247e+003, 4.268775e+002
1.232729e+003, 4.281828e+002
1.233211e+003, 4.288706e+002
1.233694e+003, 4.286785e+002
1.234176e+003, 4.284121e+002
1.234658e+003, 4.282874e+002
1.235140e+003, 4.282783e+002
1.235622e+003, 4.283841e+002
1.236104e+003, 4.285078e+002
1.236586e+003, 4.283956e+002
1.237068e+003, 4.282018e+002
1.237551e+003, 4.288467e+002
1.238033e+003, 4.300075e+002
1.238515e+003, 4.300285e+002
1.238997e+003, 4.290492e+002
1.239479e+003, 4.287172e+002
1.239961e+003, 4.293799e+002
1.240443e+003, 4.296550e+002
1.240925e+003, 4.285616e+002
1.241407e+003, 4.273549e+002
1.241890e+003, 4.272162e+002
1.242372e+003, 4.275751e+002
1.242854e+003, 4.280777e+002
1.243336e+003, 4.285810e+002
1.243818e+003, 4.290099e+002
1.244300e+003, 4.292939e+002
1.244782e+003, 4.291948e+002
1.245264e+003, 4.287357e+002
1.245746e+003, 4.286615e+002
1.246229e+003, 4.295831e+002
1.246711e+003, 4.301286e+002
1.247193e+003, 4.297981e+002
1.247675e+003, 4.294197e+002
1.248157e+003, 4.293144e+002
1.248639e+003, 4.291856e+002
1.249121e+003, 4.286633e+002
1.249603e+003, 4.281433e+002
1.250085e+003, 4.284102e+002
1.250568e+003, 4.294029e+002
1.251050e+003, 4.301220e+002
1.251532e+003, 4.305735e+002
1.252014e+003, 4.305810e+002
1.252496e+003, 4.301123e+002
1.252978e+003, 4.296914e+002
1.253460e+003, 4.294758e+002
1.253942e+003, 4.293891e+002
1.254425e+003, 4.293744e+002
1.254907e+003, 4.295139e+002
1.255389e+003, 4.302339e+002
1.255871e+003, 4.309508e+002
1.256353e+003, 4.301928e+002
1.256835e+003, 4.288182e+002
1.257317e+003, 4.283864e+002
1.257799e+003, 4.287919e+002
1.258281e+003, 4.295040e+002
1.258764e+003, 4.303010e+002
1.259246e+003, 4.308996e+002
1.259728e+003, 4.312098e+002
1.260210e+003, 4.311915e+002
1.260692e+003, 4.304714e+002
1.261174e+003, 4.298887e+002
1.261656e+003, 4.292905e+002
1.262138e+003, 4.295403e+002
1.262620e+003, 4.323080e+002
1.263103e+003, 4.357622e+002
1.263585e+003, 4.368916e+002
1.264067e+003, 4.359397e+002
1.264549e+003, 4.349088e+002
1.265031e+003, 4.334648e+002
1.265513e+003, 4.331743e+002
1.265995e+003, 4.343563e+002
1.266477e+003, 4.353876e+002
1.266960e+003, 4.359973e+002
1.267442e+003, 4.356315e+002
1.267924e+003, 4.338900e+002
1.268406e+003, 4.318410e+002
1.268888e+003, 4.306566e+002
1.269370e+003, 4.302519e+002
1.269852e+003, 4.307337e+002
1.270334e+003, 4.316911e+002
1.270817e+003, 4.321035e+002
1.271299e+003, 4.320659e+002
1.271781e+003, 4.319122e+002
1.272263e+003, 4.317694e+002
1.272745e+003, 4.317493e+002
1.273227e+003, 4.318963e+002
1.273709e+003, 4.322576e+002
1.274191e+003, 4.333680e+002
1.274673e+003, 4.340020e+002
1.275156e+003, 4.329493e+002
1.275638e+003, 4.318955e+002
1.276120e+003, 4.322769e+002
1.276602e+003, 4.330147e+002
1.277084e+003, 4.327413e+002
1.277566e+003, 4.317485e+002
1.278048e+003, 4.311846e+002
1.278530e+003, 4.311138e+002
1.279012e+003, 4.308242e+002
1.279495e+003, 4.299106e+002
1.279977e+003, 4.303040e+002
1.280459e+003, 4.324651e+002
1.280941e+003, 4.348042e+002
1.281423e+003, 4.368303e+002
1.281905e+003, 4.380895e+002
1.282387e+003, 4.381970e+002
1.282869e+003, 4.375591e+002
1.283352e+003, 4.366869e+002
1.283834e+003, 4.356443e+002
1.284316e+003, 4.345389e+002
1.284798e+003, 4.333905e+002
##END=



