##NAMES=Glecklerite
##RRUFFID=R230002
##IDEAL CHEMISTRY=Na(C_2_H_3_O_3_)
##LOCALITY=Pusch Ridge, Santa Catalina Mountains, Tucson, Pima County, Arizona, USA
##OWNER=RRUFF
##SOURCE=Warren Lazar
##DESCRIPTION=Colorless elongated tabular crystals, associated with NH4-glycolate minerals. Type sample
##STATUS=The identification of this mineral is confirmed by single-crystal X-ray diffraction and chemical analysis.
##URL=rruff.info/R230002
##MEASURED CHEMISTRY=Na_0.97_(C_2_H_3_O_3_) ; The empirical formula was calculated based on 2 C apfu (from the structure determination).
8.803156e+001, 0.000000e+000
8.851367e+001, 5.794859e+002
8.899579e+001, 5.752181e+002
8.947791e+001, 5.776361e+002
8.996002e+001, 5.858460e+002
9.044214e+001, 5.958539e+002
9.092426e+001, 6.049992e+002
9.140637e+001, 6.136601e+002
9.188849e+001, 6.219972e+002
9.237061e+001, 6.290696e+002
9.285272e+001, 6.364058e+002
9.333484e+001, 6.471638e+002
9.381696e+001, 6.614185e+002
9.429907e+001, 6.773179e+002
9.478119e+001, 6.928323e+002
9.526331e+001, 7.084504e+002
9.574542e+001, 7.270231e+002
9.622754e+001, 7.489675e+002
9.670966e+001, 7.741752e+002
9.719177e+001, 8.030232e+002
9.767389e+001, 8.356958e+002
9.815601e+001, 8.704242e+002
9.863812e+001, 9.054244e+002
9.912024e+001, 9.412274e+002
9.960236e+001, 9.741691e+002
1.000845e+002, 1.001050e+003
1.005666e+002, 1.020329e+003
1.010487e+002, 1.043632e+003
1.015308e+002, 1.068572e+003
1.020129e+002, 1.098655e+003
1.024950e+002, 1.144809e+003
1.029772e+002, 1.211582e+003
1.034593e+002, 1.286135e+003
1.039414e+002, 1.363544e+003
1.044235e+002, 1.445235e+003
1.049056e+002, 1.526015e+003
1.053877e+002, 1.607618e+003
1.058699e+002, 1.689162e+003
1.063520e+002, 1.760718e+003
1.068341e+002, 1.817477e+003
1.073162e+002, 1.868030e+003
1.077983e+002, 1.918388e+003
1.082804e+002, 1.955578e+003
1.087626e+002, 2.007254e+003
1.092447e+002, 2.075186e+003
1.097268e+002, 2.159356e+003
1.102089e+002, 2.261474e+003
1.106910e+002, 2.382202e+003
1.111731e+002, 2.521070e+003
1.116553e+002, 2.674422e+003
1.121374e+002, 2.841433e+003
1.126195e+002, 3.023389e+003
1.131016e+002, 3.225884e+003
1.135837e+002, 3.453579e+003
1.140658e+002, 3.682031e+003
1.145480e+002, 3.915933e+003
1.150301e+002, 4.147726e+003
1.155122e+002, 4.356731e+003
1.159943e+002, 4.555466e+003
1.164764e+002, 4.719793e+003
1.169585e+002, 4.840115e+003
1.174407e+002, 4.927476e+003
1.179228e+002, 4.947053e+003
1.184049e+002, 4.875604e+003
1.188870e+002, 4.721477e+003
1.193691e+002, 4.507086e+003
1.198512e+002, 4.214588e+003
1.203334e+002, 3.881834e+003
1.208155e+002, 3.543517e+003
1.212976e+002, 3.195295e+003
1.217797e+002, 2.860326e+003
1.222618e+002, 2.555198e+003
1.227439e+002, 2.277298e+003
1.232261e+002, 2.028047e+003
1.237082e+002, 1.813846e+003
1.241903e+002, 1.628676e+003
1.246724e+002, 1.467415e+003
1.251545e+002, 1.331652e+003
1.256366e+002, 1.215010e+003
1.261188e+002, 1.109155e+003
1.266009e+002, 1.014065e+003
1.270830e+002, 9.307507e+002
1.275651e+002, 8.619701e+002
1.280472e+002, 8.067300e+002
1.285293e+002, 7.589523e+002
1.290115e+002, 7.177536e+002
1.294936e+002, 6.822201e+002
1.299757e+002, 6.499849e+002
1.304578e+002, 6.205761e+002
1.309399e+002, 5.957243e+002
1.314220e+002, 5.793668e+002
1.319042e+002, 5.712448e+002
1.323863e+002, 5.643298e+002
1.328684e+002, 5.557534e+002
1.333505e+002, 5.455782e+002
1.338326e+002, 5.350993e+002
1.343147e+002, 5.245646e+002
1.347969e+002, 5.133402e+002
1.352790e+002, 4.996216e+002
1.357611e+002, 4.828681e+002
1.362432e+002, 4.658753e+002
1.367253e+002, 4.495225e+002
1.372074e+002, 4.336570e+002
1.376896e+002, 4.192662e+002
1.381717e+002, 4.065505e+002
1.386538e+002, 3.951230e+002
1.391359e+002, 3.838128e+002
1.396180e+002, 3.719732e+002
1.401001e+002, 3.613997e+002
1.405823e+002, 3.534706e+002
1.410644e+002, 3.490093e+002
1.415465e+002, 3.445849e+002
1.420286e+002, 3.394999e+002
1.425107e+002, 3.340732e+002
1.429928e+002, 3.303690e+002
1.434750e+002, 3.296638e+002
1.439571e+002, 3.292696e+002
1.444392e+002, 3.271051e+002
1.449213e+002, 3.214441e+002
1.454034e+002, 3.168755e+002
1.458855e+002, 3.144756e+002
1.463677e+002, 3.143479e+002
1.468498e+002, 3.129513e+002
1.473319e+002, 3.095826e+002
1.478140e+002, 3.053745e+002
1.482961e+002, 3.012950e+002
1.487782e+002, 2.973415e+002
1.492604e+002, 2.935205e+002
1.497425e+002, 2.898439e+002
1.502246e+002, 2.863600e+002
1.507067e+002, 2.828009e+002
1.511888e+002, 2.788130e+002
1.516709e+002, 2.748375e+002
1.521531e+002, 2.713228e+002
1.526352e+002, 2.689167e+002
1.531173e+002, 2.663997e+002
1.535994e+002, 2.633028e+002
1.540815e+002, 2.593409e+002
1.545636e+002, 2.559084e+002
1.550458e+002, 2.533689e+002
1.555279e+002, 2.514710e+002
1.560100e+002, 2.498646e+002
1.564921e+002, 2.485006e+002
1.569742e+002, 2.474063e+002
1.574563e+002, 2.466439e+002
1.579385e+002, 2.463324e+002
1.584206e+002, 2.460530e+002
1.589027e+002, 2.453639e+002
1.593848e+002, 2.446513e+002
1.598669e+002, 2.446179e+002
1.603490e+002, 2.457470e+002
1.608312e+002, 2.474560e+002
1.613133e+002, 2.493782e+002
1.617954e+002, 2.512817e+002
1.622775e+002, 2.537619e+002
1.627596e+002, 2.569944e+002
1.632417e+002, 2.609843e+002
1.637238e+002, 2.657492e+002
1.642060e+002, 2.733446e+002
1.646881e+002, 2.806000e+002
1.651702e+002, 2.851356e+002
1.656523e+002, 2.861378e+002
1.661344e+002, 2.847922e+002
1.666165e+002, 2.810178e+002
1.670987e+002, 2.752213e+002
1.675808e+002, 2.689988e+002
1.680629e+002, 2.619897e+002
1.685450e+002, 2.554700e+002
1.690271e+002, 2.506855e+002
1.695092e+002, 2.481767e+002
1.699914e+002, 2.472399e+002
1.704735e+002, 2.479707e+002
1.709556e+002, 2.500978e+002
1.714377e+002, 2.521412e+002
1.719198e+002, 2.519238e+002
1.724019e+002, 2.512629e+002
1.728841e+002, 2.529486e+002
1.733662e+002, 2.591220e+002
1.738483e+002, 2.666736e+002
1.743304e+002, 2.721374e+002
1.748125e+002, 2.757029e+002
1.752946e+002, 2.792368e+002
1.757768e+002, 2.842764e+002
1.762589e+002, 2.904128e+002
1.767410e+002, 2.966146e+002
1.772231e+002, 3.025950e+002
1.777052e+002, 3.085791e+002
1.781873e+002, 3.156109e+002
1.786695e+002, 3.236753e+002
1.791516e+002, 3.301663e+002
1.796337e+002, 3.326833e+002
1.801158e+002, 3.316937e+002
1.805979e+002, 3.284419e+002
1.810800e+002, 3.224720e+002
1.815622e+002, 3.147964e+002
1.820443e+002, 3.073998e+002
1.825264e+002, 3.002377e+002
1.830085e+002, 2.930711e+002
1.834906e+002, 2.852607e+002
1.839727e+002, 2.770687e+002
1.844549e+002, 2.693334e+002
1.849370e+002, 2.620785e+002
1.854191e+002, 2.555942e+002
1.859012e+002, 2.507288e+002
1.863833e+002, 2.475150e+002
1.868654e+002, 2.457656e+002
1.873476e+002, 2.461311e+002
1.878297e+002, 2.483494e+002
1.883118e+002, 2.498567e+002
1.887939e+002, 2.495234e+002
1.892760e+002, 2.476023e+002
1.897581e+002, 2.448694e+002
1.902403e+002, 2.410007e+002
1.907224e+002, 2.374347e+002
1.912045e+002, 2.363991e+002
1.916866e+002, 2.378488e+002
1.921687e+002, 2.395420e+002
1.926508e+002, 2.404124e+002
1.931330e+002, 2.405770e+002
1.936151e+002, 2.414998e+002
1.940972e+002, 2.434807e+002
1.945793e+002, 2.454252e+002
1.950614e+002, 2.451779e+002
1.955435e+002, 2.425518e+002
1.960257e+002, 2.406743e+002
1.965078e+002, 2.415272e+002
1.969899e+002, 2.450944e+002
1.974720e+002, 2.470018e+002
1.979541e+002, 2.468509e+002
1.984362e+002, 2.458569e+002
1.989184e+002, 2.460555e+002
1.994005e+002, 2.476388e+002
1.998826e+002, 2.492395e+002
2.003647e+002, 2.504022e+002
2.008468e+002, 2.511473e+002
2.013289e+002, 2.511717e+002
2.018111e+002, 2.503947e+002
2.022932e+002, 2.490217e+002
2.027753e+002, 2.472849e+002
2.032574e+002, 2.450777e+002
2.037395e+002, 2.429687e+002
2.042216e+002, 2.415127e+002
2.047038e+002, 2.409783e+002
2.051859e+002, 2.389697e+002
2.056680e+002, 2.350650e+002
2.061501e+002, 2.301333e+002
2.066322e+002, 2.258452e+002
2.071143e+002, 2.222698e+002
2.075965e+002, 2.191069e+002
2.080786e+002, 2.161777e+002
2.085607e+002, 2.134431e+002
2.090428e+002, 2.113474e+002
2.095249e+002, 2.101851e+002
2.100070e+002, 2.094410e+002
2.104892e+002, 2.078335e+002
2.109713e+002, 2.048013e+002
2.114534e+002, 2.023362e+002
2.119355e+002, 2.014993e+002
2.124176e+002, 2.028327e+002
2.128997e+002, 2.037556e+002
2.133819e+002, 2.043317e+002
2.138640e+002, 2.044417e+002
2.143461e+002, 2.036849e+002
2.148282e+002, 2.016160e+002
2.153103e+002, 1.996566e+002
2.157924e+002, 1.984105e+002
2.162746e+002, 1.980018e+002
2.167567e+002, 1.980017e+002
2.172388e+002, 1.987610e+002
2.177209e+002, 1.997421e+002
2.182030e+002, 1.994746e+002
2.186851e+002, 1.970746e+002
2.191673e+002, 1.951473e+002
2.196494e+002, 1.950944e+002
2.201315e+002, 1.979461e+002
2.206136e+002, 1.996392e+002
2.210957e+002, 1.998347e+002
2.215778e+002, 1.990185e+002
2.220600e+002, 1.983444e+002
2.225421e+002, 1.977626e+002
2.230242e+002, 1.973872e+002
2.235063e+002, 1.972363e+002
2.239884e+002, 1.972359e+002
2.244705e+002, 1.977118e+002
2.249527e+002, 1.988938e+002
2.254348e+002, 2.004695e+002
2.259169e+002, 2.016644e+002
2.263990e+002, 2.024239e+002
2.268811e+002, 2.029214e+002
2.273632e+002, 2.032268e+002
2.278454e+002, 2.033755e+002
2.283275e+002, 2.032256e+002
2.288096e+002, 2.026487e+002
2.292917e+002, 2.018226e+002
2.297738e+002, 2.011869e+002
2.302559e+002, 2.008608e+002
2.307381e+002, 2.005117e+002
2.312202e+002, 1.998077e+002
2.317023e+002, 1.980424e+002
2.321844e+002, 1.980088e+002
2.326665e+002, 2.006362e+002
2.331486e+002, 2.046164e+002
2.336308e+002, 2.071497e+002
2.341129e+002, 2.076499e+002
2.345950e+002, 2.076363e+002
2.350771e+002, 2.075636e+002
2.355592e+002, 2.072248e+002
2.360413e+002, 2.075398e+002
2.365235e+002, 2.091122e+002
2.370056e+002, 2.110689e+002
2.374877e+002, 2.115588e+002
2.379698e+002, 2.096056e+002
2.384519e+002, 2.077715e+002
2.389340e+002, 2.070544e+002
2.394162e+002, 2.079158e+002
2.398983e+002, 2.083769e+002
2.403804e+002, 2.081866e+002
2.408625e+002, 2.077263e+002
2.413446e+002, 2.076607e+002
2.418267e+002, 2.079720e+002
2.423089e+002, 2.087194e+002
2.427910e+002, 2.101640e+002
2.432731e+002, 2.128219e+002
2.437552e+002, 2.141639e+002
2.442373e+002, 2.137418e+002
2.447194e+002, 2.122704e+002
2.452016e+002, 2.108651e+002
2.456837e+002, 2.094211e+002
2.461658e+002, 2.082088e+002
2.466479e+002, 2.072819e+002
2.471300e+002, 2.066021e+002
2.476121e+002, 2.064601e+002
2.480943e+002, 2.073923e+002
2.485764e+002, 2.084674e+002
2.490585e+002, 2.081847e+002
2.495406e+002, 2.056706e+002
2.500227e+002, 2.034019e+002
2.505048e+002, 2.021421e+002
2.509870e+002, 2.020529e+002
2.514691e+002, 2.018489e+002
2.519512e+002, 2.013431e+002
2.524333e+002, 2.008921e+002
2.529154e+002, 2.010473e+002
2.533975e+002, 2.022580e+002
2.538797e+002, 2.031499e+002
2.543618e+002, 2.032502e+002
2.548439e+002, 2.024764e+002
2.553260e+002, 2.019418e+002
2.558081e+002, 2.016592e+002
2.562902e+002, 2.015959e+002
2.567723e+002, 2.017545e+002
2.572545e+002, 2.022683e+002
2.577366e+002, 2.027038e+002
2.582187e+002, 2.030052e+002
2.587008e+002, 2.031753e+002
2.591829e+002, 2.030203e+002
2.596650e+002, 2.024556e+002
2.601472e+002, 2.016808e+002
2.606293e+002, 2.008044e+002
2.611114e+002, 1.996622e+002
2.615935e+002, 1.989252e+002
2.620756e+002, 1.988869e+002
2.625577e+002, 1.994935e+002
2.630399e+002, 1.996925e+002
2.635220e+002, 1.993285e+002
2.640041e+002, 1.988220e+002
2.644862e+002, 1.984680e+002
2.649683e+002, 1.981778e+002
2.654504e+002, 1.984276e+002
2.659326e+002, 1.996812e+002
2.664147e+002, 2.016217e+002
2.668968e+002, 2.019844e+002
2.673789e+002, 2.001698e+002
2.678610e+002, 1.980346e+002
2.683431e+002, 1.970932e+002
2.688253e+002, 1.975554e+002
2.693074e+002, 1.983123e+002
2.697895e+002, 1.994484e+002
2.702716e+002, 2.007062e+002
2.707537e+002, 2.009023e+002
2.712358e+002, 1.996897e+002
2.717180e+002, 1.983871e+002
2.722001e+002, 1.981156e+002
2.726822e+002, 1.991516e+002
2.731643e+002, 1.993187e+002
2.736464e+002, 1.979990e+002
2.741285e+002, 1.958970e+002
2.746107e+002, 1.951272e+002
2.750928e+002, 1.958533e+002
2.755749e+002, 1.972409e+002
2.760570e+002, 1.992280e+002
2.765391e+002, 2.019336e+002
2.770212e+002, 2.031375e+002
2.775034e+002, 2.022240e+002
2.779855e+002, 2.001954e+002
2.784676e+002, 1.994359e+002
2.789497e+002, 2.001224e+002
2.794318e+002, 2.007408e+002
2.799139e+002, 2.000403e+002
2.803961e+002, 1.980539e+002
2.808782e+002, 1.976924e+002
2.813603e+002, 1.995199e+002
2.818424e+002, 2.021610e+002
2.823245e+002, 2.031410e+002
2.828066e+002, 2.023879e+002
2.832888e+002, 2.015191e+002
2.837709e+002, 2.014530e+002
2.842530e+002, 2.020585e+002
2.847351e+002, 2.019916e+002
2.852172e+002, 2.011049e+002
2.856993e+002, 1.999706e+002
2.861815e+002, 1.992913e+002
2.866636e+002, 1.990688e+002
2.871457e+002, 1.992132e+002
2.876278e+002, 1.999415e+002
2.881099e+002, 2.010451e+002
2.885920e+002, 2.016060e+002
2.890742e+002, 2.015654e+002
2.895563e+002, 2.013434e+002
2.900384e+002, 2.013569e+002
2.905205e+002, 2.015941e+002
2.910026e+002, 2.019881e+002
2.914847e+002, 2.026863e+002
2.919669e+002, 2.034659e+002
2.924490e+002, 2.036926e+002
2.929311e+002, 2.033463e+002
2.934132e+002, 2.028791e+002
2.938953e+002, 2.026631e+002
2.943774e+002, 2.026630e+002
2.948596e+002, 2.027968e+002
2.953417e+002, 2.032307e+002
2.958238e+002, 2.036168e+002
2.963059e+002, 2.031532e+002
2.967880e+002, 2.018968e+002
2.972701e+002, 2.007117e+002
2.977523e+002, 2.000030e+002
2.982344e+002, 1.998676e+002
2.987165e+002, 2.006739e+002
2.991986e+002, 2.030154e+002
2.996807e+002, 2.055107e+002
3.001628e+002, 2.062328e+002
3.006450e+002, 2.054657e+002
3.011271e+002, 2.046656e+002
3.016092e+002, 2.051197e+002
3.020913e+002, 2.060548e+002
3.025734e+002, 2.061508e+002
3.030555e+002, 2.049071e+002
3.035377e+002, 2.035865e+002
3.040198e+002, 2.036698e+002
3.045019e+002, 2.047197e+002
3.049840e+002, 2.055417e+002
3.054661e+002, 2.051221e+002
3.059482e+002, 2.042980e+002
3.064304e+002, 2.040801e+002
3.069125e+002, 2.046913e+002
3.073946e+002, 2.052144e+002
3.078767e+002, 2.044201e+002
3.083588e+002, 2.030844e+002
3.088409e+002, 2.026247e+002
3.093231e+002, 2.044298e+002
3.098052e+002, 2.068600e+002
3.102873e+002, 2.089406e+002
3.107694e+002, 2.106532e+002
3.112515e+002, 2.113811e+002
3.117336e+002, 2.098160e+002
3.122158e+002, 2.073491e+002
3.126979e+002, 2.057020e+002
3.131800e+002, 2.065111e+002
3.136621e+002, 2.074401e+002
3.141442e+002, 2.069919e+002
3.146263e+002, 2.052750e+002
3.151085e+002, 2.040464e+002
3.155906e+002, 2.045016e+002
3.160727e+002, 2.055431e+002
3.165548e+002, 2.062705e+002
3.170369e+002, 2.060543e+002
3.175190e+002, 2.058854e+002
3.180012e+002, 2.060108e+002
3.184833e+002, 2.064257e+002
3.189654e+002, 2.071142e+002
3.194475e+002, 2.089264e+002
3.199296e+002, 2.104272e+002
3.204117e+002, 2.107193e+002
3.208939e+002, 2.088113e+002
3.213760e+002, 2.070286e+002
3.218581e+002, 2.054117e+002
3.223402e+002, 2.042049e+002
3.228223e+002, 2.040096e+002
3.233044e+002, 2.061699e+002
3.237866e+002, 2.082897e+002
3.242687e+002, 2.094526e+002
3.247508e+002, 2.093045e+002
3.252329e+002, 2.089267e+002
3.257150e+002, 2.081959e+002
3.261971e+002, 2.073174e+002
3.266793e+002, 2.066082e+002
3.271614e+002, 2.059202e+002
3.276435e+002, 2.055537e+002
3.281256e+002, 2.056237e+002
3.286077e+002, 2.061918e+002
3.290898e+002, 2.068501e+002
3.295720e+002, 2.076972e+002
3.300541e+002, 2.085634e+002
3.305362e+002, 2.093149e+002
3.310183e+002, 2.102346e+002
3.315004e+002, 2.105549e+002
3.319825e+002, 2.099001e+002
3.324647e+002, 2.083682e+002
3.329468e+002, 2.073872e+002
3.334289e+002, 2.071568e+002
3.339110e+002, 2.072106e+002
3.343931e+002, 2.071578e+002
3.348752e+002, 2.067604e+002
3.353573e+002, 2.070225e+002
3.358394e+002, 2.083626e+002
3.363216e+002, 2.103085e+002
3.368037e+002, 2.113317e+002
3.372858e+002, 2.112247e+002
3.377679e+002, 2.107570e+002
3.382500e+002, 2.101261e+002
3.387321e+002, 2.092365e+002
3.392143e+002, 2.092607e+002
3.396964e+002, 2.105800e+002
3.401785e+002, 2.122957e+002
3.406606e+002, 2.127641e+002
3.411427e+002, 2.119001e+002
3.416248e+002, 2.106907e+002
3.421070e+002, 2.093720e+002
3.425891e+002, 2.079946e+002
3.430712e+002, 2.068993e+002
3.435533e+002, 2.060621e+002
3.440354e+002, 2.056241e+002
3.445175e+002, 2.058590e+002
3.449997e+002, 2.067185e+002
3.454818e+002, 2.077577e+002
3.459639e+002, 2.089122e+002
3.464460e+002, 2.101203e+002
3.469281e+002, 2.114004e+002
3.474102e+002, 2.127420e+002
3.478924e+002, 2.134899e+002
3.483745e+002, 2.123060e+002
3.488566e+002, 2.100628e+002
3.493387e+002, 2.092013e+002
3.498208e+002, 2.107228e+002
3.503029e+002, 2.129950e+002
3.507851e+002, 2.140863e+002
3.512672e+002, 2.141048e+002
3.517493e+002, 2.134174e+002
3.522314e+002, 2.111687e+002
3.527135e+002, 2.087609e+002
3.531956e+002, 2.084010e+002
3.536778e+002, 2.108000e+002
3.541599e+002, 2.133652e+002
3.546420e+002, 2.135307e+002
3.551241e+002, 2.122773e+002
3.556062e+002, 2.114539e+002
3.560883e+002, 2.123590e+002
3.565705e+002, 2.136976e+002
3.570526e+002, 2.144691e+002
3.575347e+002, 2.146169e+002
3.580168e+002, 2.147259e+002
3.584989e+002, 2.150453e+002
3.589810e+002, 2.155232e+002
3.594632e+002, 2.161053e+002
3.599453e+002, 2.173993e+002
3.604274e+002, 2.181980e+002
3.609095e+002, 2.176307e+002
3.613916e+002, 2.159712e+002
3.618737e+002, 2.147239e+002
3.623559e+002, 2.144773e+002
3.628380e+002, 2.147411e+002
3.633201e+002, 2.152262e+002
3.638022e+002, 2.159480e+002
3.642843e+002, 2.167967e+002
3.647664e+002, 2.179788e+002
3.652486e+002, 2.192634e+002
3.657307e+002, 2.201468e+002
3.662128e+002, 2.206364e+002
3.666949e+002, 2.206494e+002
3.671770e+002, 2.200023e+002
3.676591e+002, 2.183050e+002
3.681413e+002, 2.171576e+002
3.686234e+002, 2.167021e+002
3.691055e+002, 2.167054e+002
3.695876e+002, 2.169571e+002
3.700697e+002, 2.178423e+002
3.705518e+002, 2.183721e+002
3.710340e+002, 2.182873e+002
3.715161e+002, 2.176147e+002
3.719982e+002, 2.169103e+002
3.724803e+002, 2.159466e+002
3.729624e+002, 2.152779e+002
3.734445e+002, 2.154391e+002
3.739267e+002, 2.167829e+002
3.744088e+002, 2.177282e+002
3.748909e+002, 2.180376e+002
3.753730e+002, 2.179088e+002
3.758551e+002, 2.177752e+002
3.763372e+002, 2.175952e+002
3.768194e+002, 2.176121e+002
3.773015e+002, 2.181765e+002
3.777836e+002, 2.192957e+002
3.782657e+002, 2.196244e+002
3.787478e+002, 2.190266e+002
3.792299e+002, 2.179836e+002
3.797121e+002, 2.167244e+002
3.801942e+002, 2.153395e+002
3.806763e+002, 2.150192e+002
3.811584e+002, 2.167951e+002
3.816405e+002, 2.197455e+002
3.821227e+002, 2.212690e+002
3.826048e+002, 2.213637e+002
3.830869e+002, 2.210731e+002
3.835690e+002, 2.211938e+002
3.840511e+002, 2.216158e+002
3.845332e+002, 2.220851e+002
3.850154e+002, 2.225932e+002
3.854975e+002, 2.230473e+002
3.859796e+002, 2.233330e+002
3.864617e+002, 2.234672e+002
3.869438e+002, 2.235161e+002
3.874259e+002, 2.232723e+002
3.879081e+002, 2.230811e+002
3.883902e+002, 2.233602e+002
3.888723e+002, 2.242038e+002
3.893544e+002, 2.252058e+002
3.898365e+002, 2.261527e+002
3.903186e+002, 2.270827e+002
3.908008e+002, 2.280471e+002
3.912829e+002, 2.291365e+002
3.917650e+002, 2.302145e+002
3.922471e+002, 2.311885e+002
3.927292e+002, 2.320636e+002
3.932113e+002, 2.329410e+002
3.936935e+002, 2.342053e+002
3.941756e+002, 2.352917e+002
3.946577e+002, 2.357549e+002
3.951398e+002, 2.346200e+002
3.956219e+002, 2.340246e+002
3.961040e+002, 2.347295e+002
3.965862e+002, 2.362861e+002
3.970683e+002, 2.374468e+002
3.975504e+002, 2.378508e+002
3.980325e+002, 2.380514e+002
3.985146e+002, 2.380730e+002
3.989967e+002, 2.375343e+002
3.994789e+002, 2.380472e+002
3.999610e+002, 2.401592e+002
4.004431e+002, 2.429714e+002
4.009252e+002, 2.455780e+002
4.014073e+002, 2.485443e+002
4.018894e+002, 2.501241e+002
4.023716e+002, 2.493591e+002
4.028537e+002, 2.466137e+002
4.033358e+002, 2.456352e+002
4.038179e+002, 2.469307e+002
4.043000e+002, 2.488082e+002
4.047821e+002, 2.500656e+002
4.052643e+002, 2.506023e+002
4.057464e+002, 2.514001e+002
4.062285e+002, 2.526016e+002
4.067106e+002, 2.540322e+002
4.071927e+002, 2.554376e+002
4.076748e+002, 2.568186e+002
4.081570e+002, 2.581750e+002
4.086391e+002, 2.597814e+002
4.091212e+002, 2.614102e+002
4.096033e+002, 2.621028e+002
4.100854e+002, 2.618473e+002
4.105675e+002, 2.607073e+002
4.110497e+002, 2.580425e+002
4.115318e+002, 2.544561e+002
4.120139e+002, 2.518456e+002
4.124960e+002, 2.511806e+002
4.129781e+002, 2.512362e+002
4.134602e+002, 2.507357e+002
4.139424e+002, 2.496635e+002
4.144245e+002, 2.479687e+002
4.149066e+002, 2.447673e+002
4.153887e+002, 2.413363e+002
4.158708e+002, 2.392283e+002
4.163529e+002, 2.389388e+002
4.168351e+002, 2.388520e+002
4.173172e+002, 2.376762e+002
4.177993e+002, 2.361082e+002
4.182814e+002, 2.352187e+002
4.187635e+002, 2.361602e+002
4.192456e+002, 2.371807e+002
4.197278e+002, 2.375315e+002
4.202099e+002, 2.372010e+002
4.206920e+002, 2.366248e+002
4.211741e+002, 2.354913e+002
4.216562e+002, 2.344206e+002
4.221383e+002, 2.338201e+002
4.226205e+002, 2.346597e+002
4.231026e+002, 2.348639e+002
4.235847e+002, 2.338238e+002
4.240668e+002, 2.320611e+002
4.245489e+002, 2.308704e+002
4.250310e+002, 2.306253e+002
4.255132e+002, 2.304666e+002
4.259953e+002, 2.298900e+002
4.264774e+002, 2.285827e+002
4.269595e+002, 2.290739e+002
4.274416e+002, 2.326965e+002
4.279237e+002, 2.364075e+002
4.284059e+002, 2.365670e+002
4.288880e+002, 2.320030e+002
4.293701e+002, 2.287244e+002
4.298522e+002, 2.281166e+002
4.303343e+002, 2.294556e+002
4.308164e+002, 2.302113e+002
4.312986e+002, 2.303262e+002
4.317807e+002, 2.303398e+002
4.322628e+002, 2.304870e+002
4.327449e+002, 2.307911e+002
4.332270e+002, 2.316443e+002
4.337091e+002, 2.332614e+002
4.341912e+002, 2.345911e+002
4.346733e+002, 2.337592e+002
4.351555e+002, 2.313481e+002
4.356376e+002, 2.294487e+002
4.361197e+002, 2.291106e+002
4.366018e+002, 2.295963e+002
4.370839e+002, 2.300799e+002
4.375660e+002, 2.305465e+002
4.380482e+002, 2.308423e+002
4.385303e+002, 2.309922e+002
4.390124e+002, 2.308658e+002
4.394945e+002, 2.301317e+002
4.399766e+002, 2.282389e+002
4.404587e+002, 2.269312e+002
4.409409e+002, 2.275275e+002
4.414230e+002, 2.293686e+002
4.419051e+002, 2.312923e+002
4.423872e+002, 2.332743e+002
4.428693e+002, 2.348814e+002
4.433514e+002, 2.360364e+002
4.438336e+002, 2.367467e+002
4.443157e+002, 2.366345e+002
4.447978e+002, 2.344164e+002
4.452799e+002, 2.320804e+002
4.457620e+002, 2.310482e+002
4.462441e+002, 2.328545e+002
4.467263e+002, 2.341114e+002
4.472084e+002, 2.347786e+002
4.476905e+002, 2.348369e+002
4.481726e+002, 2.341283e+002
4.486547e+002, 2.321102e+002
4.491368e+002, 2.302514e+002
4.496190e+002, 2.288649e+002
4.501011e+002, 2.278793e+002
4.505832e+002, 2.286161e+002
4.510653e+002, 2.317159e+002
4.515474e+002, 2.352036e+002
4.520295e+002, 2.370394e+002
4.525117e+002, 2.371484e+002
4.529938e+002, 2.369014e+002
4.534759e+002, 2.364099e+002
4.539580e+002, 2.358887e+002
4.544401e+002, 2.358621e+002
4.549222e+002, 2.363125e+002
4.554044e+002, 2.369107e+002
4.558865e+002, 2.375789e+002
4.563686e+002, 2.382352e+002
4.568507e+002, 2.387805e+002
4.573328e+002, 2.392248e+002
4.578149e+002, 2.393300e+002
4.582971e+002, 2.382892e+002
4.587792e+002, 2.368497e+002
4.592613e+002, 2.363376e+002
4.597434e+002, 2.381387e+002
4.602255e+002, 2.400493e+002
4.607076e+002, 2.401768e+002
4.611898e+002, 2.389611e+002
4.616719e+002, 2.379740e+002
4.621540e+002, 2.381239e+002
4.626361e+002, 2.386274e+002
4.631182e+002, 2.391277e+002
4.636003e+002, 2.397141e+002
4.640825e+002, 2.397914e+002
4.645646e+002, 2.388147e+002
4.650467e+002, 2.374098e+002
4.655288e+002, 2.362797e+002
4.660109e+002, 2.351016e+002
4.664930e+002, 2.346893e+002
4.669752e+002, 2.355370e+002
4.674573e+002, 2.373898e+002
4.679394e+002, 2.386077e+002
4.684215e+002, 2.388647e+002
4.689036e+002, 2.389300e+002
4.693857e+002, 2.391146e+002
4.698679e+002, 2.393564e+002
4.703500e+002, 2.400677e+002
4.708321e+002, 2.414637e+002
4.713142e+002, 2.429572e+002
4.717963e+002, 2.435594e+002
4.722784e+002, 2.431992e+002
4.727606e+002, 2.431405e+002
4.732427e+002, 2.438221e+002
4.737248e+002, 2.449921e+002
4.742069e+002, 2.461764e+002
4.746890e+002, 2.473574e+002
4.751711e+002, 2.479321e+002
4.756533e+002, 2.467284e+002
4.761354e+002, 2.447398e+002
4.766175e+002, 2.442348e+002
4.770996e+002, 2.456880e+002
4.775817e+002, 2.473561e+002
4.780638e+002, 2.473607e+002
4.785460e+002, 2.465330e+002
4.790281e+002, 2.462866e+002
4.795102e+002, 2.479795e+002
4.799923e+002, 2.497496e+002
4.804744e+002, 2.504389e+002
4.809565e+002, 2.501879e+002
4.814387e+002, 2.496644e+002
4.819208e+002, 2.485455e+002
4.824029e+002, 2.476623e+002
4.828850e+002, 2.475860e+002
4.833671e+002, 2.487954e+002
4.838492e+002, 2.497405e+002
4.843314e+002, 2.501090e+002
4.848135e+002, 2.501569e+002
4.852956e+002, 2.501281e+002
4.857777e+002, 2.490622e+002
4.862598e+002, 2.494740e+002
4.867419e+002, 2.527597e+002
4.872241e+002, 2.580441e+002
4.877062e+002, 2.604109e+002
4.881883e+002, 2.591447e+002
4.886704e+002, 2.565873e+002
4.891525e+002, 2.533336e+002
4.896346e+002, 2.491378e+002
4.901168e+002, 2.476287e+002
4.905989e+002, 2.493544e+002
4.910810e+002, 2.521321e+002
4.915631e+002, 2.530095e+002
4.920452e+002, 2.522841e+002
4.925273e+002, 2.523726e+002
4.930095e+002, 2.544146e+002
4.934916e+002, 2.571629e+002
4.939737e+002, 2.584811e+002
4.944558e+002, 2.585637e+002
4.949379e+002, 2.584538e+002
4.954200e+002, 2.584005e+002
4.959022e+002, 2.587010e+002
4.963843e+002, 2.597852e+002
4.968664e+002, 2.617633e+002
4.973485e+002, 2.639845e+002
4.978306e+002, 2.665813e+002
4.983127e+002, 2.690325e+002
4.987949e+002, 2.707317e+002
4.992770e+002, 2.701152e+002
4.997591e+002, 2.702600e+002
5.002412e+002, 2.727085e+002
5.007233e+002, 2.767262e+002
5.012054e+002, 2.798173e+002
5.016876e+002, 2.801613e+002
5.021697e+002, 2.809132e+002
5.026518e+002, 2.830479e+002
5.031339e+002, 2.866791e+002
5.036160e+002, 2.909748e+002
5.040981e+002, 2.960441e+002
5.045803e+002, 3.016137e+002
5.050624e+002, 3.075843e+002
5.055445e+002, 3.140266e+002
5.060266e+002, 3.200721e+002
5.065087e+002, 3.252655e+002
5.069908e+002, 3.303229e+002
5.074730e+002, 3.362734e+002
5.079551e+002, 3.431001e+002
5.084372e+002, 3.524201e+002
5.089193e+002, 3.662245e+002
5.094014e+002, 3.831261e+002
5.098835e+002, 3.981847e+002
5.103657e+002, 4.115087e+002
5.108478e+002, 4.266758e+002
5.113299e+002, 4.468873e+002
5.118120e+002, 4.707973e+002
5.122941e+002, 4.962176e+002
5.127762e+002, 5.224206e+002
5.132584e+002, 5.509785e+002
5.137405e+002, 5.829569e+002
5.142226e+002, 6.183063e+002
5.147047e+002, 6.569368e+002
5.151868e+002, 7.033888e+002
5.156689e+002, 7.487968e+002
5.161511e+002, 7.898429e+002
5.166332e+002, 8.266323e+002
5.171153e+002, 8.604092e+002
5.175974e+002, 8.960353e+002
5.180795e+002, 9.252377e+002
5.185616e+002, 9.452977e+002
5.190438e+002, 9.623135e+002
5.195259e+002, 9.555924e+002
5.200080e+002, 9.193268e+002
5.204901e+002, 8.643213e+002
5.209722e+002, 8.018050e+002
5.214543e+002, 7.301447e+002
5.219365e+002, 6.621801e+002
5.224186e+002, 5.998499e+002
5.229007e+002, 5.435977e+002
5.233828e+002, 4.965574e+002
5.238649e+002, 4.585810e+002
5.243470e+002, 4.266982e+002
5.248292e+002, 3.996920e+002
5.253113e+002, 3.775978e+002
5.257934e+002, 3.595409e+002
5.262755e+002, 3.455318e+002
5.267576e+002, 3.340932e+002
5.272397e+002, 3.243782e+002
5.277219e+002, 3.160270e+002
5.282040e+002, 3.085817e+002
5.286861e+002, 3.016976e+002
5.291682e+002, 2.958736e+002
5.296503e+002, 2.913998e+002
5.301324e+002, 2.881214e+002
5.306146e+002, 2.855990e+002
5.310967e+002, 2.848157e+002
5.315788e+002, 2.837259e+002
5.320609e+002, 2.812148e+002
5.325430e+002, 2.771306e+002
5.330251e+002, 2.736172e+002
5.335073e+002, 2.706604e+002
5.339894e+002, 2.684663e+002
5.344715e+002, 2.672691e+002
5.349536e+002, 2.675950e+002
5.354357e+002, 2.677433e+002
5.359178e+002, 2.678214e+002
5.364000e+002, 2.675782e+002
5.368821e+002, 2.663490e+002
5.373642e+002, 2.639346e+002
5.378463e+002, 2.623158e+002
5.383284e+002, 2.626055e+002
5.388105e+002, 2.636974e+002
5.392927e+002, 2.617622e+002
5.397748e+002, 2.569814e+002
5.402569e+002, 2.531656e+002
5.407390e+002, 2.535818e+002
5.412211e+002, 2.563720e+002
5.417032e+002, 2.584246e+002
5.421854e+002, 2.595060e+002
5.426675e+002, 2.600362e+002
5.431496e+002, 2.599800e+002
5.436317e+002, 2.596802e+002
5.441138e+002, 2.595677e+002
5.445959e+002, 2.599593e+002
5.450781e+002, 2.602648e+002
5.455602e+002, 2.601262e+002
5.460423e+002, 2.597395e+002
5.465244e+002, 2.595234e+002
5.470065e+002, 2.594345e+002
5.474886e+002, 2.596709e+002
5.479708e+002, 2.607900e+002
5.484529e+002, 2.627873e+002
5.489350e+002, 2.628234e+002
5.494171e+002, 2.595620e+002
5.498992e+002, 2.563037e+002
5.503813e+002, 2.551500e+002
5.508635e+002, 2.564436e+002
5.513456e+002, 2.582289e+002
5.518277e+002, 2.608356e+002
5.523098e+002, 2.630735e+002
5.527919e+002, 2.626822e+002
5.532740e+002, 2.600145e+002
5.537562e+002, 2.582552e+002
5.542383e+002, 2.586640e+002
5.547204e+002, 2.598905e+002
5.552025e+002, 2.594478e+002
5.556846e+002, 2.577949e+002
5.561667e+002, 2.568827e+002
5.566489e+002, 2.585159e+002
5.571310e+002, 2.609307e+002
5.576131e+002, 2.627304e+002
5.580952e+002, 2.638348e+002
5.585773e+002, 2.640580e+002
5.590594e+002, 2.622215e+002
5.595416e+002, 2.601254e+002
5.600237e+002, 2.592383e+002
5.605058e+002, 2.607355e+002
5.609879e+002, 2.618381e+002
5.614700e+002, 2.620452e+002
5.619521e+002, 2.617494e+002
5.624343e+002, 2.614706e+002
5.629164e+002, 2.613589e+002
5.633985e+002, 2.609533e+002
5.638806e+002, 2.599804e+002
5.643627e+002, 2.586653e+002
5.648448e+002, 2.580511e+002
5.653270e+002, 2.582518e+002
5.658091e+002, 2.585134e+002
5.662912e+002, 2.582592e+002
5.667733e+002, 2.576530e+002
5.672554e+002, 2.577094e+002
5.677375e+002, 2.584774e+002
5.682197e+002, 2.593959e+002
5.687018e+002, 2.598813e+002
5.691839e+002, 2.601851e+002
5.696660e+002, 2.608417e+002
5.701481e+002, 2.621232e+002
5.706302e+002, 2.633408e+002
5.711124e+002, 2.642203e+002
5.715945e+002, 2.646375e+002
5.720766e+002, 2.643585e+002
5.725587e+002, 2.620212e+002
5.730408e+002, 2.602779e+002
5.735229e+002, 2.603607e+002
5.740051e+002, 2.620422e+002
5.744872e+002, 2.634934e+002
5.749693e+002, 2.649330e+002
5.754514e+002, 2.657210e+002
5.759335e+002, 2.653281e+002
5.764156e+002, 2.633905e+002
5.768978e+002, 2.627221e+002
5.773799e+002, 2.635810e+002
5.778620e+002, 2.651974e+002
5.783441e+002, 2.671791e+002
5.788262e+002, 2.695391e+002
5.793083e+002, 2.709123e+002
5.797905e+002, 2.709440e+002
5.802726e+002, 2.704362e+002
5.807547e+002, 2.703144e+002
5.812368e+002, 2.706236e+002
5.817189e+002, 2.715412e+002
5.822010e+002, 2.732912e+002
5.826831e+002, 2.755537e+002
5.831652e+002, 2.782735e+002
5.836473e+002, 2.812820e+002
5.841295e+002, 2.839921e+002
5.846116e+002, 2.860209e+002
5.850937e+002, 2.877258e+002
5.855758e+002, 2.889695e+002
5.860579e+002, 2.895456e+002
5.865400e+002, 2.912885e+002
5.870222e+002, 2.948483e+002
5.875043e+002, 2.995469e+002
5.879864e+002, 3.049381e+002
5.884685e+002, 3.120877e+002
5.889506e+002, 3.177374e+002
5.894327e+002, 3.211331e+002
5.899149e+002, 3.236814e+002
5.903970e+002, 3.271376e+002
5.908791e+002, 3.313148e+002
5.913612e+002, 3.381181e+002
5.918433e+002, 3.487819e+002
5.923254e+002, 3.615667e+002
5.928076e+002, 3.735707e+002
5.932897e+002, 3.845941e+002
5.937718e+002, 3.930092e+002
5.942539e+002, 3.984359e+002
5.947360e+002, 4.004396e+002
5.952181e+002, 3.980711e+002
5.957003e+002, 3.914077e+002
5.961824e+002, 3.819107e+002
5.966645e+002, 3.682310e+002
5.971466e+002, 3.534257e+002
5.976287e+002, 3.398139e+002
5.981108e+002, 3.277845e+002
5.985930e+002, 3.173754e+002
5.990751e+002, 3.086920e+002
5.995572e+002, 3.017020e+002
6.000393e+002, 2.960885e+002
6.005214e+002, 2.926872e+002
6.010035e+002, 2.891384e+002
6.014857e+002, 2.847260e+002
6.019678e+002, 2.801678e+002
6.024499e+002, 2.778736e+002
6.029320e+002, 2.782891e+002
6.034141e+002, 2.782240e+002
6.038962e+002, 2.759842e+002
6.043784e+002, 2.723907e+002
6.048605e+002, 2.704311e+002
6.053426e+002, 2.700377e+002
6.058247e+002, 2.700370e+002
6.063068e+002, 2.693957e+002
6.067889e+002, 2.686837e+002
6.072711e+002, 2.690227e+002
6.077532e+002, 2.706388e+002
6.082353e+002, 2.718383e+002
6.087174e+002, 2.712983e+002
6.091995e+002, 2.699368e+002
6.096816e+002, 2.686116e+002
6.101638e+002, 2.669152e+002
6.106459e+002, 2.661479e+002
6.111280e+002, 2.673306e+002
6.116101e+002, 2.693846e+002
6.120922e+002, 2.705314e+002
6.125743e+002, 2.703176e+002
6.130565e+002, 2.700307e+002
6.135386e+002, 2.699524e+002
6.140207e+002, 2.699837e+002
6.145028e+002, 2.696310e+002
6.149849e+002, 2.688190e+002
6.154670e+002, 2.681534e+002
6.159492e+002, 2.680297e+002
6.164313e+002, 2.683046e+002
6.169134e+002, 2.685282e+002
6.173955e+002, 2.687004e+002
6.178776e+002, 2.687491e+002
6.183597e+002, 2.683918e+002
6.188419e+002, 2.679750e+002
6.193240e+002, 2.680162e+002
6.198061e+002, 2.687004e+002
6.202882e+002, 2.693135e+002
6.207703e+002, 2.693264e+002
6.212524e+002, 2.691342e+002
6.217346e+002, 2.691538e+002
6.222167e+002, 2.700385e+002
6.226988e+002, 2.704249e+002
6.231809e+002, 2.696030e+002
6.236630e+002, 2.683666e+002
6.241451e+002, 2.683975e+002
6.246273e+002, 2.705782e+002
6.251094e+002, 2.718401e+002
6.255915e+002, 2.710865e+002
6.260736e+002, 2.688788e+002
6.265557e+002, 2.673787e+002
6.270378e+002, 2.665956e+002
6.275200e+002, 2.665474e+002
6.280021e+002, 2.676761e+002
6.284842e+002, 2.694583e+002
6.289663e+002, 2.706987e+002
6.294484e+002, 2.713844e+002
6.299305e+002, 2.719682e+002
6.304127e+002, 2.734036e+002
6.308948e+002, 2.745790e+002
6.313769e+002, 2.739120e+002
6.318590e+002, 2.702294e+002
6.323411e+002, 2.679074e+002
6.328232e+002, 2.700984e+002
6.333054e+002, 2.736967e+002
6.337875e+002, 2.753722e+002
6.342696e+002, 2.729319e+002
6.347517e+002, 2.712653e+002
6.352338e+002, 2.708867e+002
6.357159e+002, 2.712913e+002
6.361981e+002, 2.714337e+002
6.366802e+002, 2.712117e+002
6.371623e+002, 2.712281e+002
6.376444e+002, 2.717734e+002
6.381265e+002, 2.725958e+002
6.386086e+002, 2.729456e+002
6.390908e+002, 2.728531e+002
6.395729e+002, 2.726622e+002
6.400550e+002, 2.726912e+002
6.405371e+002, 2.726749e+002
6.410192e+002, 2.717800e+002
6.415013e+002, 2.701118e+002
6.419835e+002, 2.696127e+002
6.424656e+002, 2.732275e+002
6.429477e+002, 2.771419e+002
6.434298e+002, 2.783294e+002
6.439119e+002, 2.753341e+002
6.443940e+002, 2.729827e+002
6.448762e+002, 2.726140e+002
6.453583e+002, 2.727515e+002
6.458404e+002, 2.721037e+002
6.463225e+002, 2.699805e+002
6.468046e+002, 2.690208e+002
6.472867e+002, 2.696601e+002
6.477689e+002, 2.711687e+002
6.482510e+002, 2.726093e+002
6.487331e+002, 2.739706e+002
6.492152e+002, 2.745214e+002
6.496973e+002, 2.737603e+002
6.501794e+002, 2.724742e+002
6.506616e+002, 2.716930e+002
6.511437e+002, 2.714139e+002
6.516258e+002, 2.716266e+002
6.521079e+002, 2.726361e+002
6.525900e+002, 2.738857e+002
6.530721e+002, 2.749932e+002
6.535543e+002, 2.759794e+002
6.540364e+002, 2.770138e+002
6.545185e+002, 2.788907e+002
6.550006e+002, 2.801736e+002
6.554827e+002, 2.799511e+002
6.559648e+002, 2.778845e+002
6.564470e+002, 2.764157e+002
6.569291e+002, 2.755091e+002
6.574112e+002, 2.752568e+002
6.578933e+002, 2.760303e+002
6.583754e+002, 2.778994e+002
6.588575e+002, 2.790342e+002
6.593397e+002, 2.793108e+002
6.598218e+002, 2.788818e+002
6.603039e+002, 2.770166e+002
6.607860e+002, 2.745816e+002
6.612681e+002, 2.741660e+002
6.617502e+002, 2.771996e+002
6.622324e+002, 2.805566e+002
6.627145e+002, 2.815543e+002
6.631966e+002, 2.811603e+002
6.636787e+002, 2.809988e+002
6.641608e+002, 2.824306e+002
6.646429e+002, 2.832898e+002
6.651251e+002, 2.821868e+002
6.656072e+002, 2.798795e+002
6.660893e+002, 2.792933e+002
6.665714e+002, 2.817563e+002
6.670535e+002, 2.836733e+002
6.675356e+002, 2.838077e+002
6.680178e+002, 2.824199e+002
6.684999e+002, 2.810123e+002
6.689820e+002, 2.794939e+002
6.694641e+002, 2.787344e+002
6.699462e+002, 2.799600e+002
6.704283e+002, 2.822418e+002
6.709105e+002, 2.831372e+002
6.713926e+002, 2.825915e+002
6.718747e+002, 2.817969e+002
6.723568e+002, 2.816202e+002
6.728389e+002, 2.816711e+002
6.733210e+002, 2.813955e+002
6.738032e+002, 2.804096e+002
6.742853e+002, 2.802957e+002
6.747674e+002, 2.828111e+002
6.752495e+002, 2.857158e+002
6.757316e+002, 2.868379e+002
6.762137e+002, 2.847837e+002
6.766959e+002, 2.833767e+002
6.771780e+002, 2.825454e+002
6.776601e+002, 2.826465e+002
6.781422e+002, 2.848940e+002
6.786243e+002, 2.894883e+002
6.791064e+002, 2.923401e+002
6.795886e+002, 2.920805e+002
6.800707e+002, 2.903971e+002
6.805528e+002, 2.901712e+002
6.810349e+002, 2.910214e+002
6.815170e+002, 2.917092e+002
6.819991e+002, 2.910673e+002
6.824813e+002, 2.905477e+002
6.829634e+002, 2.915797e+002
6.834455e+002, 2.937512e+002
6.839276e+002, 2.954990e+002
6.844097e+002, 2.953367e+002
6.848918e+002, 2.956252e+002
6.853740e+002, 2.979613e+002
6.858561e+002, 3.022022e+002
6.863382e+002, 3.042142e+002
6.868203e+002, 3.027327e+002
6.873024e+002, 3.014587e+002
6.877845e+002, 3.023713e+002
6.882667e+002, 3.054630e+002
6.887488e+002, 3.097317e+002
6.892309e+002, 3.153671e+002
6.897130e+002, 3.202587e+002
6.901951e+002, 3.216339e+002
6.906772e+002, 3.212317e+002
6.911594e+002, 3.222701e+002
6.916415e+002, 3.251891e+002
6.921236e+002, 3.294199e+002
6.926057e+002, 3.346722e+002
6.930878e+002, 3.409253e+002
6.935699e+002, 3.481993e+002
6.940521e+002, 3.570746e+002
6.945342e+002, 3.659622e+002
6.950163e+002, 3.744854e+002
6.954984e+002, 3.830988e+002
6.959805e+002, 3.924092e+002
6.964626e+002, 4.023798e+002
6.969448e+002, 4.127498e+002
6.974269e+002, 4.231519e+002
6.979090e+002, 4.343842e+002
6.983911e+002, 4.493823e+002
6.988732e+002, 4.674417e+002
6.993553e+002, 4.828099e+002
6.998375e+002, 4.930261e+002
7.003196e+002, 4.998183e+002
7.008017e+002, 5.056799e+002
7.012838e+002, 5.098539e+002
7.017659e+002, 5.102187e+002
7.022480e+002, 5.046624e+002
7.027302e+002, 4.961496e+002
7.032123e+002, 4.855801e+002
7.036944e+002, 4.730104e+002
7.041765e+002, 4.593121e+002
7.046586e+002, 4.423027e+002
7.051407e+002, 4.270736e+002
7.056229e+002, 4.161876e+002
7.061050e+002, 4.093663e+002
7.065871e+002, 3.991363e+002
7.070692e+002, 3.848925e+002
7.075513e+002, 3.712188e+002
7.080334e+002, 3.613781e+002
7.085156e+002, 3.546110e+002
7.089977e+002, 3.497592e+002
7.094798e+002, 3.467156e+002
7.099619e+002, 3.432128e+002
7.104440e+002, 3.363900e+002
7.109261e+002, 3.289324e+002
7.114083e+002, 3.233820e+002
7.118904e+002, 3.203937e+002
7.123725e+002, 3.183397e+002
7.128546e+002, 3.176444e+002
7.133367e+002, 3.171133e+002
7.138188e+002, 3.157749e+002
7.143010e+002, 3.131187e+002
7.147831e+002, 3.107262e+002
7.152652e+002, 3.084144e+002
7.157473e+002, 3.066490e+002
7.162294e+002, 3.063120e+002
7.167115e+002, 3.072698e+002
7.171937e+002, 3.078544e+002
7.176758e+002, 3.078296e+002
7.181579e+002, 3.071193e+002
7.186400e+002, 3.050859e+002
7.191221e+002, 3.023898e+002
7.196042e+002, 3.002131e+002
7.200864e+002, 2.991509e+002
7.205685e+002, 2.984815e+002
7.210506e+002, 2.980638e+002
7.215327e+002, 2.977798e+002
7.220148e+002, 2.973903e+002
7.224969e+002, 2.968419e+002
7.229791e+002, 2.962077e+002
7.234612e+002, 2.953498e+002
7.239433e+002, 2.944764e+002
7.244254e+002, 2.943306e+002
7.249075e+002, 2.950386e+002
7.253896e+002, 2.954395e+002
7.258718e+002, 2.948552e+002
7.263539e+002, 2.938918e+002
7.268360e+002, 2.942336e+002
7.273181e+002, 2.955252e+002
7.278002e+002, 2.961150e+002
7.282823e+002, 2.937940e+002
7.287645e+002, 2.914430e+002
7.292466e+002, 2.915702e+002
7.297287e+002, 2.939157e+002
7.302108e+002, 2.960982e+002
7.306929e+002, 2.973299e+002
7.311750e+002, 2.984066e+002
7.316572e+002, 2.999893e+002
7.321393e+002, 3.020791e+002
7.326214e+002, 3.020948e+002
7.331035e+002, 2.993423e+002
7.335856e+002, 2.965605e+002
7.340677e+002, 2.955328e+002
7.345499e+002, 2.959864e+002
7.350320e+002, 2.966241e+002
7.355141e+002, 2.974294e+002
7.359962e+002, 2.977220e+002
7.364783e+002, 2.964921e+002
7.369604e+002, 2.947126e+002
7.374426e+002, 2.933902e+002
7.379247e+002, 2.926401e+002
7.384068e+002, 2.924450e+002
7.388889e+002, 2.932590e+002
7.393710e+002, 2.942960e+002
7.398531e+002, 2.949094e+002
7.403353e+002, 2.946865e+002
7.408174e+002, 2.953731e+002
7.412995e+002, 2.976494e+002
7.417816e+002, 2.996939e+002
7.422637e+002, 2.993183e+002
7.427458e+002, 2.966921e+002
7.432280e+002, 2.949057e+002
7.437101e+002, 2.943438e+002
7.441922e+002, 2.943690e+002
7.446743e+002, 2.944817e+002
7.451564e+002, 2.946700e+002
7.456385e+002, 2.949383e+002
7.461207e+002, 2.953586e+002
7.466028e+002, 2.956701e+002
7.470849e+002, 2.954205e+002
7.475670e+002, 2.951350e+002
7.480491e+002, 2.954759e+002
7.485313e+002, 2.973563e+002
7.490134e+002, 2.985000e+002
7.494955e+002, 2.986299e+002
7.499776e+002, 2.981712e+002
7.504597e+002, 2.976491e+002
7.509418e+002, 2.970512e+002
7.514240e+002, 2.967272e+002
7.519061e+002, 2.967550e+002
7.523882e+002, 2.970702e+002
7.528703e+002, 2.979379e+002
7.533524e+002, 2.990098e+002
7.538345e+002, 2.994289e+002
7.543167e+002, 2.980873e+002
7.547988e+002, 2.970247e+002
7.552809e+002, 2.979906e+002
7.557630e+002, 2.999062e+002
7.562451e+002, 3.005616e+002
7.567272e+002, 2.981260e+002
7.572094e+002, 2.964550e+002
7.576915e+002, 2.964177e+002
7.581736e+002, 2.973249e+002
7.586557e+002, 2.972702e+002
7.591378e+002, 2.961402e+002
7.596199e+002, 2.953796e+002
7.601021e+002, 2.956205e+002
7.605842e+002, 2.963446e+002
7.610663e+002, 2.967548e+002
7.615484e+002, 2.968530e+002
7.620305e+002, 2.966626e+002
7.625126e+002, 2.954965e+002
7.629948e+002, 2.947003e+002
7.634769e+002, 2.956526e+002
7.639590e+002, 2.977781e+002
7.644411e+002, 2.987767e+002
7.649232e+002, 2.964006e+002
7.654053e+002, 2.952547e+002
7.658875e+002, 2.970636e+002
7.663696e+002, 3.010038e+002
7.668517e+002, 3.025353e+002
7.673338e+002, 3.014192e+002
7.678159e+002, 3.000098e+002
7.682980e+002, 2.990021e+002
7.687802e+002, 2.986807e+002
7.692623e+002, 3.001805e+002
7.697444e+002, 3.031143e+002
7.702265e+002, 3.056304e+002
7.707086e+002, 3.067678e+002
7.711907e+002, 3.070969e+002
7.716729e+002, 3.066824e+002
7.721550e+002, 3.056277e+002
7.726371e+002, 3.048901e+002
7.731192e+002, 3.045744e+002
7.736013e+002, 3.046552e+002
7.740834e+002, 3.053127e+002
7.745656e+002, 3.064500e+002
7.750477e+002, 3.068834e+002
7.755298e+002, 3.065250e+002
7.760119e+002, 3.062841e+002
7.764940e+002, 3.069677e+002
7.769761e+002, 3.080803e+002
7.774583e+002, 3.085461e+002
7.779404e+002, 3.084239e+002
7.784225e+002, 3.082950e+002
7.789046e+002, 3.085872e+002
7.793867e+002, 3.089278e+002
7.798688e+002, 3.089478e+002
7.803509e+002, 3.085989e+002
7.808330e+002, 3.088104e+002
7.813151e+002, 3.102780e+002
7.817972e+002, 3.114083e+002
7.822794e+002, 3.111947e+002
7.827615e+002, 3.097063e+002
7.832436e+002, 3.097438e+002
7.837257e+002, 3.114676e+002
7.842078e+002, 3.130267e+002
7.846899e+002, 3.128613e+002
7.851721e+002, 3.117404e+002
7.856542e+002, 3.106513e+002
7.861363e+002, 3.097070e+002
7.866184e+002, 3.097381e+002
7.871005e+002, 3.125783e+002
7.875826e+002, 3.154822e+002
7.880648e+002, 3.165037e+002
7.885469e+002, 3.151892e+002
7.890290e+002, 3.140812e+002
7.895111e+002, 3.131319e+002
7.899932e+002, 3.125487e+002
7.904753e+002, 3.126807e+002
7.909575e+002, 3.134864e+002
7.914396e+002, 3.132855e+002
7.919217e+002, 3.120259e+002
7.924038e+002, 3.108059e+002
7.928859e+002, 3.107509e+002
7.933680e+002, 3.111239e+002
7.938502e+002, 3.109378e+002
7.943323e+002, 3.101214e+002
7.948144e+002, 3.089874e+002
7.952965e+002, 3.066800e+002
7.957786e+002, 3.049135e+002
7.962607e+002, 3.051153e+002
7.967429e+002, 3.076358e+002
7.972250e+002, 3.093506e+002
7.977071e+002, 3.102603e+002
7.981892e+002, 3.103472e+002
7.986713e+002, 3.088694e+002
7.991534e+002, 3.062151e+002
7.996356e+002, 3.063865e+002
8.001177e+002, 3.094128e+002
8.005998e+002, 3.121950e+002
8.010819e+002, 3.117857e+002
8.015640e+002, 3.102285e+002
8.020461e+002, 3.097207e+002
8.025283e+002, 3.104882e+002
8.030104e+002, 3.114633e+002
8.034925e+002, 3.127856e+002
8.039746e+002, 3.137623e+002
8.044567e+002, 3.140013e+002
8.049388e+002, 3.134344e+002
8.054210e+002, 3.128632e+002
8.059031e+002, 3.123966e+002
8.063852e+002, 3.115407e+002
8.068673e+002, 3.092542e+002
8.073494e+002, 3.062965e+002
8.078315e+002, 3.059285e+002
8.083137e+002, 3.080635e+002
8.087958e+002, 3.095901e+002
8.092779e+002, 3.071070e+002
8.097600e+002, 3.040125e+002
8.102421e+002, 3.030992e+002
8.107242e+002, 3.047380e+002
8.112064e+002, 3.067161e+002
8.116885e+002, 3.096147e+002
8.121706e+002, 3.117265e+002
8.126527e+002, 3.120710e+002
8.131348e+002, 3.106382e+002
8.136169e+002, 3.093351e+002
8.140991e+002, 3.080988e+002
8.145812e+002, 3.075068e+002
8.150633e+002, 3.088675e+002
8.155454e+002, 3.108041e+002
8.160275e+002, 3.103659e+002
8.165096e+002, 3.077271e+002
8.169918e+002, 3.055763e+002
8.174739e+002, 3.056570e+002
8.179560e+002, 3.064274e+002
8.184381e+002, 3.069598e+002
8.189202e+002, 3.071740e+002
8.194023e+002, 3.079990e+002
8.198845e+002, 3.100091e+002
8.203666e+002, 3.114708e+002
8.208487e+002, 3.113328e+002
8.213308e+002, 3.098936e+002
8.218129e+002, 3.088048e+002
8.222950e+002, 3.080755e+002
8.227772e+002, 3.079739e+002
8.232593e+002, 3.092665e+002
8.237414e+002, 3.108463e+002
8.242235e+002, 3.117610e+002
8.247056e+002, 3.119589e+002
8.251877e+002, 3.114625e+002
8.256699e+002, 3.088574e+002
8.261520e+002, 3.070590e+002
8.266341e+002, 3.075258e+002
8.271162e+002, 3.098965e+002
8.275983e+002, 3.111183e+002
8.280804e+002, 3.109709e+002
8.285626e+002, 3.108324e+002
8.290447e+002, 3.114344e+002
8.295268e+002, 3.124483e+002
8.300089e+002, 3.130301e+002
8.304910e+002, 3.132888e+002
8.309731e+002, 3.137191e+002
8.314553e+002, 3.147636e+002
8.319374e+002, 3.159027e+002
8.324195e+002, 3.170021e+002
8.329016e+002, 3.179804e+002
8.333837e+002, 3.184305e+002
8.338658e+002, 3.184026e+002
8.343480e+002, 3.177139e+002
8.348301e+002, 3.159567e+002
8.353122e+002, 3.136859e+002
8.357943e+002, 3.128557e+002
8.362764e+002, 3.133902e+002
8.367585e+002, 3.139874e+002
8.372407e+002, 3.136107e+002
8.377228e+002, 3.135658e+002
8.382049e+002, 3.164308e+002
8.386870e+002, 3.208026e+002
8.391691e+002, 3.232704e+002
8.396512e+002, 3.207087e+002
8.401334e+002, 3.182391e+002
8.406155e+002, 3.175904e+002
8.410976e+002, 3.178909e+002
8.415797e+002, 3.171051e+002
8.420618e+002, 3.147363e+002
8.425439e+002, 3.138707e+002
8.430261e+002, 3.157875e+002
8.435082e+002, 3.184700e+002
8.439903e+002, 3.179672e+002
8.444724e+002, 3.153385e+002
8.449545e+002, 3.134866e+002
8.454366e+002, 3.133475e+002
8.459188e+002, 3.143889e+002
8.464009e+002, 3.172303e+002
8.468830e+002, 3.207811e+002
8.473651e+002, 3.233708e+002
8.478472e+002, 3.250008e+002
8.483293e+002, 3.252781e+002
8.488115e+002, 3.236042e+002
8.492936e+002, 3.213356e+002
8.497757e+002, 3.203968e+002
8.502578e+002, 3.206668e+002
8.507399e+002, 3.211804e+002
8.512220e+002, 3.218983e+002
8.517042e+002, 3.222231e+002
8.521863e+002, 3.206121e+002
8.526684e+002, 3.186604e+002
8.531505e+002, 3.185501e+002
8.536326e+002, 3.216631e+002
8.541147e+002, 3.244648e+002
8.545969e+002, 3.266900e+002
8.550790e+002, 3.279890e+002
8.555611e+002, 3.276520e+002
8.560432e+002, 3.252343e+002
8.565253e+002, 3.244265e+002
8.570074e+002, 3.255455e+002
8.574896e+002, 3.272875e+002
8.579717e+002, 3.288080e+002
8.584538e+002, 3.299462e+002
8.589359e+002, 3.301374e+002
8.594180e+002, 3.292270e+002
8.599001e+002, 3.289316e+002
8.603823e+002, 3.306889e+002
8.608644e+002, 3.329167e+002
8.613465e+002, 3.348280e+002
8.618286e+002, 3.365466e+002
8.623107e+002, 3.362678e+002
8.627928e+002, 3.330057e+002
8.632750e+002, 3.305258e+002
8.637571e+002, 3.322600e+002
8.642392e+002, 3.368714e+002
8.647213e+002, 3.387968e+002
8.652034e+002, 3.382460e+002
8.656855e+002, 3.373399e+002
8.661677e+002, 3.369566e+002
8.666498e+002, 3.371414e+002
8.671319e+002, 3.383387e+002
8.676140e+002, 3.404185e+002
8.680961e+002, 3.415618e+002
8.685782e+002, 3.410399e+002
8.690604e+002, 3.406004e+002
8.695425e+002, 3.408417e+002
8.700246e+002, 3.415901e+002
8.705067e+002, 3.421804e+002
8.709888e+002, 3.426191e+002
8.714709e+002, 3.429836e+002
8.719531e+002, 3.433034e+002
8.724352e+002, 3.435619e+002
8.729173e+002, 3.431810e+002
8.733994e+002, 3.427322e+002
8.738815e+002, 3.436164e+002
8.743636e+002, 3.492057e+002
8.748458e+002, 3.523882e+002
8.753279e+002, 3.503919e+002
8.758100e+002, 3.460374e+002
8.762921e+002, 3.451938e+002
8.767742e+002, 3.481750e+002
8.772563e+002, 3.502962e+002
8.777385e+002, 3.502007e+002
8.782206e+002, 3.496551e+002
8.787027e+002, 3.512100e+002
8.791848e+002, 3.539792e+002
8.796669e+002, 3.563992e+002
8.801490e+002, 3.579394e+002
8.806312e+002, 3.592504e+002
8.811133e+002, 3.602396e+002
8.815954e+002, 3.612971e+002
8.820775e+002, 3.628660e+002
8.825596e+002, 3.651736e+002
8.830417e+002, 3.670593e+002
8.835239e+002, 3.682809e+002
8.840060e+002, 3.696684e+002
8.844881e+002, 3.724126e+002
8.849702e+002, 3.758943e+002
8.854523e+002, 3.786287e+002
8.859344e+002, 3.803930e+002
8.864166e+002, 3.822602e+002
8.868987e+002, 3.842072e+002
8.873808e+002, 3.869387e+002
8.878629e+002, 3.912130e+002
8.883450e+002, 3.972700e+002
8.888271e+002, 4.028318e+002
8.893093e+002, 4.075514e+002
8.897914e+002, 4.127834e+002
8.902735e+002, 4.193289e+002
8.907556e+002, 4.270496e+002
8.912377e+002, 4.350744e+002
8.917198e+002, 4.436717e+002
8.922020e+002, 4.542318e+002
8.926841e+002, 4.678393e+002
8.931662e+002, 4.836361e+002
8.936483e+002, 5.002520e+002
8.941304e+002, 5.184090e+002
8.946125e+002, 5.404310e+002
8.950947e+002, 5.647452e+002
8.955768e+002, 5.962751e+002
8.960589e+002, 6.362711e+002
8.965410e+002, 6.840660e+002
8.970231e+002, 7.356708e+002
8.975052e+002, 7.925635e+002
8.979874e+002, 8.586949e+002
8.984695e+002, 9.365662e+002
8.989516e+002, 1.024433e+003
8.994337e+002, 1.119163e+003
8.999158e+002, 1.224481e+003
9.003979e+002, 1.346152e+003
9.008801e+002, 1.485597e+003
9.013622e+002, 1.644493e+003
9.018443e+002, 1.827785e+003
9.023264e+002, 2.026702e+003
9.028085e+002, 2.234292e+003
9.032906e+002, 2.452040e+003
9.037728e+002, 2.683783e+003
9.042549e+002, 2.932432e+003
9.047370e+002, 3.167329e+003
9.052191e+002, 3.401581e+003
9.057012e+002, 3.578522e+003
9.061833e+002, 3.646836e+003
9.066655e+002, 3.596688e+003
9.071476e+002, 3.433287e+003
9.076297e+002, 3.109889e+003
9.081118e+002, 2.743352e+003
9.085939e+002, 2.375343e+003
9.090760e+002, 2.009973e+003
9.095582e+002, 1.701606e+003
9.100403e+002, 1.452464e+003
9.105224e+002, 1.246738e+003
9.110045e+002, 1.084309e+003
9.114866e+002, 9.532421e+002
9.119688e+002, 8.478683e+002
9.124509e+002, 7.658323e+002
9.129330e+002, 6.974960e+002
9.134151e+002, 6.456366e+002
9.138972e+002, 6.025021e+002
9.143793e+002, 5.673289e+002
9.148615e+002, 5.390214e+002
9.153436e+002, 5.150422e+002
9.158257e+002, 4.953784e+002
9.163078e+002, 4.788684e+002
9.167899e+002, 4.661568e+002
9.172720e+002, 4.547354e+002
9.177542e+002, 4.411444e+002
9.182363e+002, 4.270949e+002
9.187184e+002, 4.152642e+002
9.192005e+002, 4.069312e+002
9.196826e+002, 4.004884e+002
9.201647e+002, 3.973630e+002
9.206469e+002, 3.943696e+002
9.211290e+002, 3.876956e+002
9.216111e+002, 3.770908e+002
9.220932e+002, 3.693438e+002
9.225753e+002, 3.651154e+002
9.230574e+002, 3.623214e+002
9.235396e+002, 3.591857e+002
9.240217e+002, 3.563049e+002
9.245038e+002, 3.545315e+002
9.249859e+002, 3.539431e+002
9.254680e+002, 3.538326e+002
9.259501e+002, 3.552905e+002
9.264323e+002, 3.557866e+002
9.269144e+002, 3.540533e+002
9.273965e+002, 3.503469e+002
9.278786e+002, 3.471344e+002
9.283607e+002, 3.443931e+002
9.288428e+002, 3.420247e+002
9.293250e+002, 3.398018e+002
9.298071e+002, 3.380721e+002
9.302892e+002, 3.376234e+002
9.307713e+002, 3.380177e+002
9.312534e+002, 3.381584e+002
9.317355e+002, 3.375650e+002
9.322177e+002, 3.368294e+002
9.326998e+002, 3.357772e+002
9.331819e+002, 3.348656e+002
9.336640e+002, 3.352817e+002
9.341461e+002, 3.369909e+002
9.346282e+002, 3.369698e+002
9.351104e+002, 3.343392e+002
9.355925e+002, 3.314302e+002
9.360746e+002, 3.310250e+002
9.365567e+002, 3.315840e+002
9.370388e+002, 3.310253e+002
9.375209e+002, 3.283591e+002
9.380031e+002, 3.269050e+002
9.384852e+002, 3.281211e+002
9.389673e+002, 3.294998e+002
9.394494e+002, 3.294572e+002
9.399315e+002, 3.280526e+002
9.404136e+002, 3.267555e+002
9.408958e+002, 3.255717e+002
9.413779e+002, 3.254445e+002
9.418600e+002, 3.290884e+002
9.423421e+002, 3.324807e+002
9.428242e+002, 3.306541e+002
9.433063e+002, 3.247662e+002
9.437885e+002, 3.208696e+002
9.442706e+002, 3.212372e+002
9.447527e+002, 3.224762e+002
9.452348e+002, 3.243750e+002
9.457169e+002, 3.263919e+002
9.461990e+002, 3.270632e+002
9.466812e+002, 3.265581e+002
9.471633e+002, 3.264495e+002
9.476454e+002, 3.274330e+002
9.481275e+002, 3.281866e+002
9.486096e+002, 3.272360e+002
9.490917e+002, 3.255260e+002
9.495739e+002, 3.241790e+002
9.500560e+002, 3.235020e+002
9.505381e+002, 3.229595e+002
9.510202e+002, 3.221865e+002
9.515023e+002, 3.221794e+002
9.519844e+002, 3.245175e+002
9.524666e+002, 3.285436e+002
9.529487e+002, 3.302698e+002
9.534308e+002, 3.296636e+002
9.539129e+002, 3.285305e+002
9.543950e+002, 3.272725e+002
9.548771e+002, 3.266671e+002
9.553593e+002, 3.278626e+002
9.558414e+002, 3.305564e+002
9.563235e+002, 3.316355e+002
9.568056e+002, 3.299500e+002
9.572877e+002, 3.292812e+002
9.577698e+002, 3.311257e+002
9.582520e+002, 3.341347e+002
9.587341e+002, 3.353324e+002
9.592162e+002, 3.350867e+002
9.596983e+002, 3.344572e+002
9.601804e+002, 3.336537e+002
9.606625e+002, 3.328406e+002
9.611447e+002, 3.323078e+002
9.616268e+002, 3.316901e+002
9.621089e+002, 3.304344e+002
9.625910e+002, 3.277683e+002
9.630731e+002, 3.269326e+002
9.635552e+002, 3.283725e+002
9.640374e+002, 3.301423e+002
9.645195e+002, 3.302505e+002
9.650016e+002, 3.294768e+002
9.654837e+002, 3.296399e+002
9.659658e+002, 3.307414e+002
9.664479e+002, 3.314266e+002
9.669301e+002, 3.307278e+002
9.674122e+002, 3.297574e+002
9.678943e+002, 3.288272e+002
9.683764e+002, 3.280467e+002
9.688585e+002, 3.282296e+002
9.693406e+002, 3.296108e+002
9.698228e+002, 3.297638e+002
9.703049e+002, 3.272407e+002
9.707870e+002, 3.243522e+002
9.712691e+002, 3.248043e+002
9.717512e+002, 3.270793e+002
9.722333e+002, 3.283809e+002
9.727155e+002, 3.272078e+002
9.731976e+002, 3.262039e+002
9.736797e+002, 3.256642e+002
9.741618e+002, 3.256402e+002
9.746439e+002, 3.265333e+002
9.751260e+002, 3.283595e+002
9.756082e+002, 3.287827e+002
9.760903e+002, 3.276823e+002
9.765724e+002, 3.262806e+002
9.770544e+002, 3.253426e+002
9.775366e+002, 3.247520e+002
9.780187e+002, 3.242664e+002
9.785008e+002, 3.239460e+002
9.789829e+002, 3.245909e+002
9.794650e+002, 3.275523e+002
9.799471e+002, 3.292962e+002
9.804293e+002, 3.282806e+002
9.809114e+002, 3.260122e+002
9.813935e+002, 3.265419e+002
9.818756e+002, 3.292425e+002
9.823577e+002, 3.311978e+002
9.828398e+002, 3.312776e+002
9.833220e+002, 3.308473e+002
9.838041e+002, 3.305504e+002
9.842862e+002, 3.303906e+002
9.847683e+002, 3.304577e+002
9.852504e+002, 3.311146e+002
9.857325e+002, 3.307859e+002
9.862147e+002, 3.291508e+002
9.866968e+002, 3.275534e+002
9.871789e+002, 3.272139e+002
9.876610e+002, 3.277015e+002
9.881431e+002, 3.281252e+002
9.886252e+002, 3.284444e+002
9.891074e+002, 3.285942e+002
9.895895e+002, 3.284798e+002
9.900716e+002, 3.282652e+002
9.905537e+002, 3.280470e+002
9.910358e+002, 3.277819e+002
9.915179e+002, 3.272281e+002
9.920001e+002, 3.263379e+002
9.924822e+002, 3.258246e+002
9.929643e+002, 3.259001e+002
9.934464e+002, 3.262751e+002
9.939285e+002, 3.267796e+002
9.944106e+002, 3.272737e+002
9.948928e+002, 3.275115e+002
9.953749e+002, 3.272463e+002
9.958570e+002, 3.273107e+002
9.963391e+002, 3.278947e+002
9.968212e+002, 3.287145e+002
9.973033e+002, 3.299179e+002
9.977855e+002, 3.313416e+002
9.982676e+002, 3.311832e+002
9.987497e+002, 3.295045e+002
9.992318e+002, 3.271199e+002
9.997139e+002, 3.230112e+002
1.000196e+003, 3.197946e+002
1.000678e+003, 3.196882e+002
1.001160e+003, 3.219561e+002
1.001642e+003, 3.243267e+002
1.002125e+003, 3.269752e+002
1.002607e+003, 3.287953e+002
1.003089e+003, 3.294402e+002
1.003571e+003, 3.296138e+002
1.004053e+003, 3.303737e+002
1.004535e+003, 3.314037e+002
1.005017e+003, 3.320663e+002
1.005499e+003, 3.323073e+002
1.005981e+003, 3.317397e+002
1.006464e+003, 3.289023e+002
1.006946e+003, 3.263820e+002
1.007428e+003, 3.257562e+002
1.007910e+003, 3.269245e+002
1.008392e+003, 3.281218e+002
1.008874e+003, 3.293840e+002
1.009356e+003, 3.297636e+002
1.009838e+003, 3.279347e+002
1.010320e+003, 3.259262e+002
1.010803e+003, 3.266305e+002
1.011285e+003, 3.288543e+002
1.011767e+003, 3.302186e+002
1.012249e+003, 3.290740e+002
1.012731e+003, 3.284962e+002
1.013213e+003, 3.289485e+002
1.013695e+003, 3.296597e+002
1.014177e+003, 3.295136e+002
1.014660e+003, 3.288258e+002
1.015142e+003, 3.294499e+002
1.015624e+003, 3.315076e+002
1.016106e+003, 3.334147e+002
1.016588e+003, 3.336513e+002
1.017070e+003, 3.337661e+002
1.017552e+003, 3.352596e+002
1.018034e+003, 3.377588e+002
1.018516e+003, 3.382943e+002
1.018999e+003, 3.362663e+002
1.019481e+003, 3.349982e+002
1.019963e+003, 3.357200e+002
1.020445e+003, 3.371369e+002
1.020927e+003, 3.372042e+002
1.021409e+003, 3.365197e+002
1.021891e+003, 3.361517e+002
1.022373e+003, 3.362902e+002
1.022856e+003, 3.370040e+002
1.023338e+003, 3.390210e+002
1.023820e+003, 3.408598e+002
1.024302e+003, 3.413759e+002
1.024784e+003, 3.406356e+002
1.025266e+003, 3.403060e+002
1.025748e+003, 3.404201e+002
1.026230e+003, 3.414213e+002
1.026713e+003, 3.450227e+002
1.027195e+003, 3.482939e+002
1.027677e+003, 3.484520e+002
1.028159e+003, 3.465227e+002
1.028641e+003, 3.456324e+002
1.029123e+003, 3.463307e+002
1.029605e+003, 3.471695e+002
1.030087e+003, 3.481541e+002
1.030569e+003, 3.486646e+002
1.031052e+003, 3.470141e+002
1.031534e+003, 3.445215e+002
1.032016e+003, 3.442558e+002
1.032498e+003, 3.467778e+002
1.032980e+003, 3.491035e+002
1.033462e+003, 3.502110e+002
1.033944e+003, 3.505004e+002
1.034426e+003, 3.497470e+002
1.034908e+003, 3.483490e+002
1.035391e+003, 3.487464e+002
1.035873e+003, 3.508731e+002
1.036355e+003, 3.532426e+002
1.036837e+003, 3.552582e+002
1.037319e+003, 3.572092e+002
1.037801e+003, 3.596008e+002
1.038283e+003, 3.619654e+002
1.038765e+003, 3.634969e+002
1.039248e+003, 3.629123e+002
1.039730e+003, 3.642729e+002
1.040212e+003, 3.683594e+002
1.040694e+003, 3.723847e+002
1.041176e+003, 3.735971e+002
1.041658e+003, 3.732247e+002
1.042140e+003, 3.740169e+002
1.042622e+003, 3.759614e+002
1.043104e+003, 3.785588e+002
1.043587e+003, 3.822633e+002
1.044069e+003, 3.857178e+002
1.044551e+003, 3.880279e+002
1.045033e+003, 3.901558e+002
1.045515e+003, 3.938513e+002
1.045997e+003, 3.991421e+002
1.046479e+003, 4.058885e+002
1.046961e+003, 4.143080e+002
1.047443e+003, 4.228153e+002
1.047926e+003, 4.282913e+002
1.048408e+003, 4.345496e+002
1.048890e+003, 4.453156e+002
1.049372e+003, 4.614512e+002
1.049854e+003, 4.793451e+002
1.050336e+003, 4.988068e+002
1.050818e+003, 5.200959e+002
1.051300e+003, 5.425316e+002
1.051783e+003, 5.674913e+002
1.052265e+003, 5.993546e+002
1.052747e+003, 6.363110e+002
1.053229e+003, 6.737377e+002
1.053711e+003, 7.068911e+002
1.054193e+003, 7.459697e+002
1.054675e+003, 7.989204e+002
1.055157e+003, 8.540287e+002
1.055640e+003, 9.054985e+002
1.056122e+003, 9.531600e+002
1.056604e+003, 9.877233e+002
1.057086e+003, 1.008911e+003
1.057568e+003, 1.012995e+003
1.058050e+003, 9.945283e+002
1.058532e+003, 9.606011e+002
1.059014e+003, 9.112199e+002
1.059496e+003, 8.506956e+002
1.059979e+003, 7.910919e+002
1.060461e+003, 7.313073e+002
1.060943e+003, 6.771882e+002
1.061425e+003, 6.295167e+002
1.061907e+003, 5.876642e+002
1.062389e+003, 5.526094e+002
1.062871e+003, 5.230771e+002
1.063353e+003, 4.977745e+002
1.063835e+003, 4.764587e+002
1.064318e+003, 4.592060e+002
1.064800e+003, 4.488470e+002
1.065282e+003, 4.387437e+002
1.065764e+003, 4.259458e+002
1.066246e+003, 4.122804e+002
1.066728e+003, 4.030275e+002
1.067210e+003, 3.975644e+002
1.067692e+003, 3.930558e+002
1.068175e+003, 3.887027e+002
1.068657e+003, 3.845943e+002
1.069139e+003, 3.809289e+002
1.069621e+003, 3.773582e+002
1.070103e+003, 3.733831e+002
1.070585e+003, 3.686374e+002
1.071067e+003, 3.660082e+002
1.071549e+003, 3.656288e+002
1.072031e+003, 3.657082e+002
1.072514e+003, 3.655364e+002
1.072996e+003, 3.648294e+002
1.073478e+003, 3.630000e+002
1.073960e+003, 3.603974e+002
1.074442e+003, 3.578555e+002
1.074924e+003, 3.554735e+002
1.075406e+003, 3.531494e+002
1.075888e+003, 3.503759e+002
1.076370e+003, 3.486784e+002
1.076853e+003, 3.511578e+002
1.077335e+003, 3.557737e+002
1.077817e+003, 3.569135e+002
1.078299e+003, 3.543491e+002
1.078781e+003, 3.519231e+002
1.079263e+003, 3.523053e+002
1.079745e+003, 3.521774e+002
1.080227e+003, 3.500546e+002
1.080709e+003, 3.466843e+002
1.081192e+003, 3.437055e+002
1.081674e+003, 3.411661e+002
1.082156e+003, 3.403766e+002
1.082638e+003, 3.419846e+002
1.083120e+003, 3.438399e+002
1.083602e+003, 3.444479e+002
1.084084e+003, 3.443122e+002
1.084566e+003, 3.437210e+002
1.085049e+003, 3.426837e+002
1.085531e+003, 3.418354e+002
1.086013e+003, 3.411604e+002
1.086495e+003, 3.407759e+002
1.086977e+003, 3.408127e+002
1.087459e+003, 3.410666e+002
1.087941e+003, 3.412920e+002
1.088423e+003, 3.415012e+002
1.088906e+003, 3.417083e+002
1.089388e+003, 3.416594e+002
1.089870e+003, 3.420829e+002
1.090352e+003, 3.430100e+002
1.090834e+003, 3.443790e+002
1.091316e+003, 3.466335e+002
1.091798e+003, 3.492515e+002
1.092280e+003, 3.504047e+002
1.092762e+003, 3.501830e+002
1.093245e+003, 3.491395e+002
1.093727e+003, 3.466904e+002
1.094209e+003, 3.444565e+002
1.094691e+003, 3.424931e+002
1.095173e+003, 3.414173e+002
1.095655e+003, 3.429682e+002
1.096137e+003, 3.469399e+002
1.096619e+003, 3.482512e+002
1.097101e+003, 3.462717e+002
1.097584e+003, 3.437589e+002
1.098066e+003, 3.422125e+002
1.098548e+003, 3.414916e+002
1.099030e+003, 3.419190e+002
1.099512e+003, 3.432085e+002
1.099994e+003, 3.437473e+002
1.100476e+003, 3.434177e+002
1.100958e+003, 3.429526e+002
1.101441e+003, 3.424694e+002
1.101923e+003, 3.421183e+002
1.102405e+003, 3.422617e+002
1.102887e+003, 3.425704e+002
1.103369e+003, 3.423908e+002
1.103851e+003, 3.413478e+002
1.104333e+003, 3.418122e+002
1.104815e+003, 3.447740e+002
1.105297e+003, 3.471905e+002
1.105780e+003, 3.474756e+002
1.106262e+003, 3.465045e+002
1.106744e+003, 3.464614e+002
1.107226e+003, 3.468246e+002
1.107708e+003, 3.461458e+002
1.108190e+003, 3.424668e+002
1.108672e+003, 3.407497e+002
1.109154e+003, 3.440277e+002
1.109636e+003, 3.475558e+002
1.110119e+003, 3.474859e+002
1.110601e+003, 3.443677e+002
1.111083e+003, 3.435918e+002
1.111565e+003, 3.448010e+002
1.112047e+003, 3.455681e+002
1.112529e+003, 3.438968e+002
1.113011e+003, 3.421547e+002
1.113493e+003, 3.419311e+002
1.113976e+003, 3.420966e+002
1.114458e+003, 3.405035e+002
1.114940e+003, 3.367339e+002
1.115422e+003, 3.366246e+002
1.115904e+003, 3.407510e+002
1.116386e+003, 3.445638e+002
1.116868e+003, 3.441883e+002
1.117350e+003, 3.420629e+002
1.117833e+003, 3.392897e+002
1.118315e+003, 3.365050e+002
1.118797e+003, 3.360652e+002
1.119279e+003, 3.387301e+002
1.119761e+003, 3.411467e+002
1.120243e+003, 3.429189e+002
1.120725e+003, 3.435652e+002
1.121207e+003, 3.412236e+002
1.121689e+003, 3.380674e+002
1.122172e+003, 3.374479e+002
1.122654e+003, 3.398206e+002
1.123136e+003, 3.405715e+002
1.123618e+003, 3.380868e+002
1.124100e+003, 3.363110e+002
1.124582e+003, 3.366671e+002
1.125064e+003, 3.381328e+002
1.125546e+003, 3.391545e+002
1.126028e+003, 3.396144e+002
1.126511e+003, 3.388992e+002
1.126993e+003, 3.362637e+002
1.127475e+003, 3.350195e+002
1.127957e+003, 3.371179e+002
1.128439e+003, 3.397052e+002
1.128921e+003, 3.416427e+002
1.129403e+003, 3.429067e+002
1.129885e+003, 3.429355e+002
1.130368e+003, 3.420638e+002
1.130850e+003, 3.418749e+002
1.131332e+003, 3.439543e+002
1.131814e+003, 3.450897e+002
1.132296e+003, 3.424893e+002
1.132778e+003, 3.393089e+002
1.133260e+003, 3.384151e+002
1.133742e+003, 3.398666e+002
1.134224e+003, 3.396208e+002
1.134707e+003, 3.378108e+002
1.135189e+003, 3.365312e+002
1.135671e+003, 3.375569e+002
1.136153e+003, 3.390218e+002
1.136635e+003, 3.395467e+002
1.137117e+003, 3.398392e+002
1.137599e+003, 3.413246e+002
1.138081e+003, 3.444880e+002
1.138563e+003, 3.459121e+002
1.139046e+003, 3.453563e+002
1.139528e+003, 3.440620e+002
1.140010e+003, 3.423178e+002
1.140492e+003, 3.409206e+002
1.140974e+003, 3.409609e+002
1.141456e+003, 3.420066e+002
1.141938e+003, 3.423484e+002
1.142420e+003, 3.416170e+002
1.142903e+003, 3.411601e+002
1.143385e+003, 3.412305e+002
1.143867e+003, 3.412268e+002
1.144349e+003, 3.400405e+002
1.144831e+003, 3.386576e+002
1.145313e+003, 3.385096e+002
1.145795e+003, 3.396063e+002
1.146277e+003, 3.405133e+002
1.146760e+003, 3.409089e+002
1.147242e+003, 3.414234e+002
1.147724e+003, 3.422466e+002
1.148206e+003, 3.431471e+002
1.148688e+003, 3.439609e+002
1.149170e+003, 3.445422e+002
1.149652e+003, 3.444179e+002
1.150134e+003, 3.434219e+002
1.150616e+003, 3.430967e+002
1.151099e+003, 3.449290e+002
1.151581e+003, 3.455614e+002
1.152063e+003, 3.430588e+002
1.152545e+003, 3.395157e+002
1.153027e+003, 3.406048e+002
1.153509e+003, 3.446347e+002
1.153991e+003, 3.469868e+002
1.154473e+003, 3.460584e+002
1.154955e+003, 3.448491e+002
1.155438e+003, 3.440736e+002
1.155920e+003, 3.436613e+002
1.156402e+003, 3.437582e+002
1.156884e+003, 3.441584e+002
1.157366e+003, 3.439656e+002
1.157848e+003, 3.432641e+002
1.158330e+003, 3.422983e+002
1.158812e+003, 3.403532e+002
1.159295e+003, 3.397695e+002
1.159777e+003, 3.435100e+002
1.160259e+003, 3.473083e+002
1.160741e+003, 3.477974e+002
1.161223e+003, 3.452162e+002
1.161705e+003, 3.433289e+002
1.162187e+003, 3.421679e+002
1.162669e+003, 3.417679e+002
1.163151e+003, 3.423905e+002
1.163634e+003, 3.434940e+002
1.164116e+003, 3.452881e+002
1.164598e+003, 3.471023e+002
1.165080e+003, 3.481712e+002
1.165562e+003, 3.484638e+002
1.166044e+003, 3.484924e+002
1.166526e+003, 3.482643e+002
1.167008e+003, 3.478136e+002
1.167490e+003, 3.461552e+002
1.167973e+003, 3.453185e+002
1.168455e+003, 3.483635e+002
1.168937e+003, 3.524545e+002
1.169419e+003, 3.519719e+002
1.169901e+003, 3.460158e+002
1.170383e+003, 3.435435e+002
1.170865e+003, 3.452550e+002
1.171347e+003, 3.472693e+002
1.171830e+003, 3.459456e+002
1.172312e+003, 3.442104e+002
1.172794e+003, 3.446694e+002
1.173276e+003, 3.466860e+002
1.173758e+003, 3.479760e+002
1.174240e+003, 3.485311e+002
1.174722e+003, 3.480625e+002
1.175204e+003, 3.463225e+002
1.175687e+003, 3.451349e+002
1.176169e+003, 3.471421e+002
1.176651e+003, 3.497990e+002
1.177133e+003, 3.507311e+002
1.177615e+003, 3.499785e+002
1.178097e+003, 3.489201e+002
1.178579e+003, 3.473891e+002
1.179061e+003, 3.464516e+002
1.179543e+003, 3.463798e+002
1.180026e+003, 3.465960e+002
1.180508e+003, 3.464067e+002
1.180990e+003, 3.461985e+002
1.181472e+003, 3.464265e+002
1.181954e+003, 3.471250e+002
1.182436e+003, 3.479956e+002
1.182918e+003, 3.494151e+002
1.183400e+003, 3.492518e+002
1.183882e+003, 3.463783e+002
1.184365e+003, 3.435221e+002
1.184847e+003, 3.446879e+002
1.185329e+003, 3.476469e+002
1.185811e+003, 3.496601e+002
1.186293e+003, 3.502834e+002
1.186775e+003, 3.509044e+002
1.187257e+003, 3.516247e+002
1.187739e+003, 3.522349e+002
1.188222e+003, 3.526301e+002
1.188704e+003, 3.529803e+002
1.189186e+003, 3.539521e+002
1.189668e+003, 3.548507e+002
1.190150e+003, 3.544263e+002
1.190632e+003, 3.520515e+002
1.191114e+003, 3.508207e+002
1.191596e+003, 3.511727e+002
1.192078e+003, 3.517471e+002
1.192561e+003, 3.521584e+002
1.193043e+003, 3.521947e+002
1.193525e+003, 3.508784e+002
1.194007e+003, 3.491729e+002
1.194489e+003, 3.487353e+002
1.194971e+003, 3.503837e+002
1.195453e+003, 3.518763e+002
1.195935e+003, 3.533962e+002
1.196417e+003, 3.538817e+002
1.196900e+003, 3.523275e+002
1.197382e+003, 3.499393e+002
1.197864e+003, 3.481668e+002
1.198346e+003, 3.474232e+002
1.198828e+003, 3.487759e+002
1.199310e+003, 3.545760e+002
1.199792e+003, 3.568305e+002
1.200274e+003, 3.542698e+002
1.200757e+003, 3.509373e+002
1.201239e+003, 3.486122e+002
1.201721e+003, 3.476213e+002
1.202203e+003, 3.498679e+002
1.202685e+003, 3.535772e+002
1.203167e+003, 3.549572e+002
1.203649e+003, 3.506136e+002
1.204131e+003, 3.486613e+002
1.204614e+003, 3.499395e+002
1.205096e+003, 3.518818e+002
1.205578e+003, 3.531120e+002
1.206060e+003, 3.535420e+002
1.206542e+003, 3.524442e+002
1.207024e+003, 3.505220e+002
1.207506e+003, 3.493959e+002
1.207988e+003, 3.495906e+002
1.208470e+003, 3.509223e+002
1.208953e+003, 3.540532e+002
1.209435e+003, 3.564190e+002
1.209917e+003, 3.550949e+002
1.210399e+003, 3.522092e+002
1.210881e+003, 3.516255e+002
1.211363e+003, 3.526826e+002
1.211845e+003, 3.535578e+002
1.212327e+003, 3.541443e+002
1.212809e+003, 3.536977e+002
1.213292e+003, 3.519090e+002
1.213774e+003, 3.499823e+002
1.214256e+003, 3.489421e+002
1.214738e+003, 3.484294e+002
1.215220e+003, 3.475850e+002
1.215702e+003, 3.467350e+002
1.216184e+003, 3.470329e+002
1.216666e+003, 3.500263e+002
1.217149e+003, 3.513574e+002
1.217631e+003, 3.502607e+002
1.218113e+003, 3.492563e+002
1.218595e+003, 3.518017e+002
1.219077e+003, 3.551826e+002
1.219559e+003, 3.545564e+002
1.220041e+003, 3.511292e+002
1.220523e+003, 3.497380e+002
1.221005e+003, 3.527533e+002
1.221488e+003, 3.539798e+002
1.221970e+003, 3.525731e+002
1.222452e+003, 3.506546e+002
1.222934e+003, 3.499528e+002
1.223416e+003, 3.501841e+002
1.223898e+003, 3.514055e+002
1.224380e+003, 3.532850e+002
1.224862e+003, 3.544982e+002
1.225344e+003, 3.547255e+002
1.225827e+003, 3.549204e+002
1.226309e+003, 3.551878e+002
1.226791e+003, 3.554085e+002
1.227273e+003, 3.555678e+002
1.227755e+003, 3.555385e+002
1.228237e+003, 3.547639e+002
1.228719e+003, 3.536072e+002
1.229201e+003, 3.537711e+002
1.229684e+003, 3.558306e+002
1.230166e+003, 3.574648e+002
1.230648e+003, 3.584492e+002
1.231130e+003, 3.587702e+002
1.231612e+003, 3.576695e+002
1.232094e+003, 3.565044e+002
1.232576e+003, 3.568478e+002
1.233058e+003, 3.584384e+002
1.233541e+003, 3.597325e+002
1.234023e+003, 3.606745e+002
1.234505e+003, 3.614972e+002
1.234987e+003, 3.622892e+002
1.235469e+003, 3.624981e+002
1.235951e+003, 3.605751e+002
1.236433e+003, 3.587109e+002
1.236915e+003, 3.588890e+002
1.237397e+003, 3.609186e+002
1.237880e+003, 3.634273e+002
1.238362e+003, 3.665475e+002
1.238844e+003, 3.688776e+002
1.239326e+003, 3.701764e+002
1.239808e+003, 3.713454e+002
1.240290e+003, 3.731033e+002
1.240772e+003, 3.750876e+002
1.241254e+003, 3.759001e+002
1.241736e+003, 3.769284e+002
1.242219e+003, 3.825688e+002
1.242701e+003, 3.929891e+002
1.243183e+003, 4.020998e+002
1.243665e+003, 4.089176e+002
1.244147e+003, 4.176442e+002
1.244629e+003, 4.315060e+002
1.245111e+003, 4.484445e+002
1.245593e+003, 4.658872e+002
1.246076e+003, 4.856857e+002
1.246558e+003, 5.109845e+002
1.247040e+003, 5.419236e+002
1.247522e+003, 5.827765e+002
1.248004e+003, 6.340967e+002
1.248486e+003, 6.922685e+002
1.248968e+003, 7.745502e+002
1.249450e+003, 8.420262e+002
1.249932e+003, 8.846661e+002
1.250415e+003, 8.966631e+002
1.250897e+003, 8.535547e+002
1.251379e+003, 7.651018e+002
1.251861e+003, 6.793603e+002
1.252343e+003, 6.025528e+002
1.252825e+003, 5.409966e+002
1.253307e+003, 5.028735e+002
1.253789e+003, 4.736052e+002
1.254271e+003, 4.480863e+002
1.254754e+003, 4.267702e+002
1.255236e+003, 4.113299e+002
1.255718e+003, 4.006590e+002
1.256200e+003, 3.917084e+002
1.256682e+003, 3.840446e+002
1.257164e+003, 3.782009e+002
1.257646e+003, 3.760254e+002
1.258128e+003, 3.734520e+002
1.258611e+003, 3.690979e+002
1.259093e+003, 3.647784e+002
1.259575e+003, 3.638022e+002
1.260057e+003, 3.647925e+002
1.260539e+003, 3.650476e+002
1.261021e+003, 3.643003e+002
1.261503e+003, 3.634255e+002
1.261985e+003, 3.622627e+002
1.262468e+003, 3.618008e+002
1.262950e+003, 3.624646e+002
1.263432e+003, 3.632939e+002
1.263914e+003, 3.628139e+002
1.264396e+003, 3.617640e+002
1.264878e+003, 3.610602e+002
1.265360e+003, 3.607994e+002
1.265842e+003, 3.610638e+002
1.266324e+003, 3.622332e+002
1.266807e+003, 3.623984e+002
1.267289e+003, 3.609771e+002
1.267771e+003, 3.594722e+002
1.268253e+003, 3.591832e+002
1.268735e+003, 3.599213e+002
1.269217e+003, 3.624495e+002
1.269699e+003, 3.660524e+002
1.270181e+003, 3.666205e+002
1.270663e+003, 3.635717e+002
1.271146e+003, 3.612160e+002
1.271628e+003, 3.602002e+002
1.272110e+003, 3.599550e+002
1.272592e+003, 3.606315e+002
1.273074e+003, 3.612857e+002
1.273556e+003, 3.608032e+002
1.274038e+003, 3.597882e+002
1.274520e+003, 3.599999e+002
1.275002e+003, 3.614116e+002
1.275485e+003, 3.626847e+002
1.275967e+003, 3.636580e+002
1.276449e+003, 3.643019e+002
1.276931e+003, 3.648387e+002
1.277413e+003, 3.647358e+002
1.277895e+003, 3.632527e+002
1.278377e+003, 3.613571e+002
1.278859e+003, 3.605460e+002
1.279342e+003, 3.607939e+002
1.279824e+003, 3.626287e+002
1.280306e+003, 3.659637e+002
1.280788e+003, 3.679559e+002
1.281270e+003, 3.649321e+002
1.281752e+003, 3.634384e+002
1.282234e+003, 3.656785e+002
1.282716e+003, 3.694045e+002
1.283198e+003, 3.714943e+002
1.283681e+003, 3.725516e+002
1.284163e+003, 3.738228e+002
1.284645e+003, 3.754440e+002
1.285127e+003, 3.775644e+002
1.285609e+003, 3.805138e+002
1.286091e+003, 3.834893e+002
1.286573e+003, 3.864518e+002
1.287055e+003, 3.891823e+002
1.287537e+003, 3.909703e+002
1.288020e+003, 3.926719e+002
1.288502e+003, 3.948024e+002
1.288984e+003, 3.978703e+002
1.289466e+003, 4.041890e+002
1.289948e+003, 4.148648e+002
1.290430e+003, 4.248094e+002
1.290912e+003, 4.332804e+002
1.291394e+003, 4.426047e+002
1.291877e+003, 4.544786e+002
1.292359e+003, 4.685362e+002
1.292841e+003, 4.841468e+002
1.293323e+003, 5.022007e+002
1.293805e+003, 5.242789e+002
1.294287e+003, 5.508508e+002
1.294769e+003, 5.763767e+002
1.295251e+003, 6.005021e+002
1.295734e+003, 6.248011e+002
1.296216e+003, 6.533442e+002
1.296698e+003, 6.786049e+002
1.297180e+003, 6.974243e+002
1.297662e+003, 7.095820e+002
1.298144e+003, 7.145265e+002
1.298626e+003, 7.120333e+002
1.299108e+003, 6.977946e+002
1.299590e+003, 6.729286e+002
1.300073e+003, 6.459037e+002
1.300555e+003, 6.188466e+002
##END=



