##NAMES=Mosesite
##RRUFFID=R180030
##IDEAL CHEMISTRY=(Hg^2+^_2_N^3-^)Cl
##LOCALITY=Terlingua, Brewster Co., Texas, USA
##OWNER=RRUFF
##SOURCE=Tom Loomis
##DESCRIPTION=Aggregates of granular yellow crystals
##STATUS=The identification of this mineral has been confirmed only by single crystal X-ray diffraction.
##URL=rruff.info/R180030
8.758203e+001, 1.658511e+003
8.806415e+001, 1.590289e+003
8.854626e+001, 1.578223e+003
8.902838e+001, 1.642764e+003
8.951050e+001, 1.728609e+003
8.999261e+001, 1.818876e+003
9.047473e+001, 1.911460e+003
9.095685e+001, 2.005276e+003
9.143896e+001, 2.098510e+003
9.192108e+001, 2.191787e+003
9.240320e+001, 2.290900e+003
9.288531e+001, 2.368631e+003
9.336743e+001, 2.405851e+003
9.384955e+001, 2.411154e+003
9.433167e+001, 2.420057e+003
9.481378e+001, 2.422660e+003
9.529590e+001, 2.433984e+003
9.577802e+001, 2.452497e+003
9.626013e+001, 2.464768e+003
9.674225e+001, 2.466684e+003
9.722437e+001, 2.458401e+003
9.770648e+001, 2.433665e+003
9.818860e+001, 2.381208e+003
9.867072e+001, 2.320472e+003
9.915283e+001, 2.256525e+003
9.963495e+001, 2.190915e+003
1.001171e+002, 2.129653e+003
1.005992e+002, 2.081213e+003
1.010813e+002, 2.046876e+003
1.015634e+002, 2.020478e+003
1.020455e+002, 2.000986e+003
1.025277e+002, 1.985707e+003
1.030098e+002, 1.973394e+003
1.034919e+002, 1.963336e+003
1.039740e+002, 1.954383e+003
1.044561e+002, 1.943214e+003
1.049382e+002, 1.926357e+003
1.054204e+002, 1.910682e+003
1.059025e+002, 1.898708e+003
1.063846e+002, 1.888160e+003
1.068667e+002, 1.874807e+003
1.073488e+002, 1.855368e+003
1.078309e+002, 1.830974e+003
1.083131e+002, 1.811467e+003
1.087952e+002, 1.800477e+003
1.092773e+002, 1.790255e+003
1.097594e+002, 1.776159e+003
1.102415e+002, 1.758184e+003
1.107236e+002, 1.739921e+003
1.112058e+002, 1.724385e+003
1.116879e+002, 1.710799e+003
1.121700e+002, 1.696714e+003
1.126521e+002, 1.681577e+003
1.131342e+002, 1.665741e+003
1.136163e+002, 1.649764e+003
1.140985e+002, 1.633712e+003
1.145806e+002, 1.617590e+003
1.150627e+002, 1.601164e+003
1.155448e+002, 1.584680e+003
1.160269e+002, 1.568519e+003
1.165090e+002, 1.552826e+003
1.169912e+002, 1.537633e+003
1.174733e+002, 1.523395e+003
1.179554e+002, 1.510013e+003
1.184375e+002, 1.497811e+003
1.189196e+002, 1.486344e+003
1.194017e+002, 1.475927e+003
1.198839e+002, 1.467611e+003
1.203660e+002, 1.462235e+003
1.208481e+002, 1.458941e+003
1.213302e+002, 1.461524e+003
1.218123e+002, 1.470026e+003
1.222944e+002, 1.482753e+003
1.227766e+002, 1.502400e+003
1.232587e+002, 1.528410e+003
1.237408e+002, 1.553794e+003
1.242229e+002, 1.565292e+003
1.247050e+002, 1.557113e+003
1.251871e+002, 1.540036e+003
1.256693e+002, 1.508517e+003
1.261514e+002, 1.469548e+003
1.266335e+002, 1.431217e+003
1.271156e+002, 1.396348e+003
1.275977e+002, 1.365403e+003
1.280798e+002, 1.340135e+003
1.285620e+002, 1.321093e+003
1.290441e+002, 1.304591e+003
1.295262e+002, 1.289771e+003
1.300083e+002, 1.276443e+003
1.304904e+002, 1.263950e+003
1.309725e+002, 1.251557e+003
1.314547e+002, 1.240246e+003
1.319368e+002, 1.231467e+003
1.324189e+002, 1.225433e+003
1.329010e+002, 1.221800e+003
1.333831e+002, 1.221314e+003
1.338652e+002, 1.224782e+003
1.343474e+002, 1.227074e+003
1.348295e+002, 1.223154e+003
1.353116e+002, 1.217274e+003
1.357937e+002, 1.214186e+003
1.362758e+002, 1.216467e+003
1.367579e+002, 1.222129e+003
1.372401e+002, 1.225788e+003
1.377222e+002, 1.225580e+003
1.382043e+002, 1.226207e+003
1.386864e+002, 1.229606e+003
1.391685e+002, 1.234660e+003
1.396507e+002, 1.239577e+003
1.401328e+002, 1.242861e+003
1.406149e+002, 1.244645e+003
1.410970e+002, 1.248840e+003
1.415791e+002, 1.257438e+003
1.420612e+002, 1.266729e+003
1.425434e+002, 1.276714e+003
1.430255e+002, 1.286732e+003
1.435076e+002, 1.295554e+003
1.439897e+002, 1.301794e+003
1.444718e+002, 1.304616e+003
1.449539e+002, 1.309701e+003
1.454361e+002, 1.317703e+003
1.459182e+002, 1.326895e+003
1.464003e+002, 1.337032e+003
1.468824e+002, 1.347787e+003
1.473645e+002, 1.358040e+003
1.478466e+002, 1.366388e+003
1.483288e+002, 1.372186e+003
1.488109e+002, 1.378180e+003
1.492930e+002, 1.385548e+003
1.497751e+002, 1.392643e+003
1.502572e+002, 1.397923e+003
1.507393e+002, 1.401114e+003
1.512215e+002, 1.402174e+003
1.517036e+002, 1.400446e+003
1.521857e+002, 1.396270e+003
1.526678e+002, 1.390577e+003
1.531499e+002, 1.384097e+003
1.536320e+002, 1.376353e+003
1.541142e+002, 1.366213e+003
1.545963e+002, 1.353529e+003
1.550784e+002, 1.337906e+003
1.555605e+002, 1.319130e+003
1.560426e+002, 1.297343e+003
1.565247e+002, 1.274117e+003
1.570069e+002, 1.249775e+003
1.574890e+002, 1.224371e+003
1.579711e+002, 1.200609e+003
1.584532e+002, 1.180596e+003
1.589353e+002, 1.161388e+003
1.594174e+002, 1.141420e+003
1.598996e+002, 1.120414e+003
1.603817e+002, 1.098739e+003
1.608638e+002, 1.076035e+003
1.613459e+002, 1.051219e+003
1.618280e+002, 1.029251e+003
1.623102e+002, 1.012658e+003
1.627923e+002, 9.978226e+002
1.632744e+002, 9.825423e+002
1.637565e+002, 9.660970e+002
1.642386e+002, 9.495054e+002
1.647207e+002, 9.344634e+002
1.652029e+002, 9.222546e+002
1.656850e+002, 9.098283e+002
1.661671e+002, 8.965313e+002
1.666492e+002, 8.832355e+002
1.671313e+002, 8.705654e+002
1.676134e+002, 8.588885e+002
1.680956e+002, 8.480365e+002
1.685777e+002, 8.375392e+002
1.690598e+002, 8.271711e+002
1.695419e+002, 8.174821e+002
1.700240e+002, 8.084624e+002
1.705061e+002, 8.001352e+002
1.709883e+002, 7.927849e+002
1.714704e+002, 7.867062e+002
1.719525e+002, 7.813373e+002
1.724346e+002, 7.741696e+002
1.729167e+002, 7.629827e+002
1.733988e+002, 7.527922e+002
1.738810e+002, 7.456371e+002
1.743631e+002, 7.407247e+002
1.748452e+002, 7.361343e+002
1.753273e+002, 7.310665e+002
1.758094e+002, 7.253932e+002
1.762915e+002, 7.190124e+002
1.767737e+002, 7.105487e+002
1.772558e+002, 7.028970e+002
1.777379e+002, 6.983024e+002
1.782200e+002, 6.965414e+002
1.787021e+002, 6.949010e+002
1.791842e+002, 6.918555e+002
1.796664e+002, 6.879377e+002
1.801485e+002, 6.842194e+002
1.806306e+002, 6.807854e+002
1.811127e+002, 6.776051e+002
1.815948e+002, 6.749576e+002
1.820769e+002, 6.730325e+002
1.825591e+002, 6.705320e+002
1.830412e+002, 6.652781e+002
1.835233e+002, 6.595022e+002
1.840054e+002, 6.559609e+002
1.844875e+002, 6.566106e+002
1.849696e+002, 6.587656e+002
1.854518e+002, 6.570433e+002
1.859339e+002, 6.494304e+002
1.864160e+002, 6.424287e+002
1.868981e+002, 6.388976e+002
1.873802e+002, 6.370803e+002
1.878623e+002, 6.348648e+002
1.883445e+002, 6.309874e+002
1.888266e+002, 6.263277e+002
1.893087e+002, 6.242228e+002
1.897908e+002, 6.279473e+002
1.902729e+002, 6.295411e+002
1.907550e+002, 6.260295e+002
1.912372e+002, 6.196871e+002
1.917193e+002, 6.133805e+002
1.922014e+002, 6.087106e+002
1.926835e+002, 6.055995e+002
1.931656e+002, 6.036134e+002
1.936477e+002, 6.056285e+002
1.941299e+002, 6.058323e+002
1.946120e+002, 6.011336e+002
1.950941e+002, 5.941319e+002
1.955762e+002, 5.894529e+002
1.960583e+002, 5.905306e+002
1.965404e+002, 5.968470e+002
1.970226e+002, 5.989863e+002
1.975047e+002, 5.927176e+002
1.979868e+002, 5.870214e+002
1.984689e+002, 5.844611e+002
1.989510e+002, 5.844623e+002
1.994331e+002, 5.853602e+002
1.999153e+002, 5.860739e+002
2.003974e+002, 5.865983e+002
2.008795e+002, 5.869417e+002
2.013616e+002, 5.875897e+002
2.018437e+002, 5.876496e+002
2.023258e+002, 5.861364e+002
2.028080e+002, 5.834991e+002
2.032901e+002, 5.813907e+002
2.037722e+002, 5.810675e+002
2.042543e+002, 5.824603e+002
2.047364e+002, 5.835155e+002
2.052185e+002, 5.847208e+002
2.057007e+002, 5.852369e+002
2.061828e+002, 5.838620e+002
2.066649e+002, 5.808342e+002
2.071470e+002, 5.784280e+002
2.076291e+002, 5.784750e+002
2.081112e+002, 5.805953e+002
2.085934e+002, 5.822830e+002
2.090755e+002, 5.834693e+002
2.095576e+002, 5.841702e+002
2.100397e+002, 5.841630e+002
2.105218e+002, 5.834183e+002
2.110039e+002, 5.827909e+002
2.114861e+002, 5.829526e+002
2.119682e+002, 5.836274e+002
2.124503e+002, 5.842800e+002
2.129324e+002, 5.851513e+002
2.134145e+002, 5.857206e+002
2.138967e+002, 5.849833e+002
2.143788e+002, 5.825621e+002
2.148609e+002, 5.806004e+002
2.153430e+002, 5.814822e+002
2.158251e+002, 5.833174e+002
2.163072e+002, 5.835629e+002
2.167894e+002, 5.805256e+002
2.172715e+002, 5.763126e+002
2.177536e+002, 5.749168e+002
2.182357e+002, 5.775148e+002
2.187178e+002, 5.796653e+002
2.191999e+002, 5.785060e+002
2.196821e+002, 5.761554e+002
2.201642e+002, 5.752255e+002
2.206463e+002, 5.772723e+002
2.211284e+002, 5.806566e+002
2.216105e+002, 5.814830e+002
2.220926e+002, 5.783502e+002
2.225748e+002, 5.754139e+002
2.230569e+002, 5.741628e+002
2.235390e+002, 5.737114e+002
2.240211e+002, 5.730111e+002
2.245032e+002, 5.715062e+002
2.249853e+002, 5.696672e+002
2.254675e+002, 5.688961e+002
2.259496e+002, 5.702806e+002
2.264317e+002, 5.710102e+002
2.269138e+002, 5.700045e+002
2.273959e+002, 5.683071e+002
2.278780e+002, 5.669826e+002
2.283602e+002, 5.665336e+002
2.288423e+002, 5.668453e+002
2.293244e+002, 5.676594e+002
2.298065e+002, 5.703786e+002
2.302886e+002, 5.715373e+002
2.307707e+002, 5.693262e+002
2.312529e+002, 5.659142e+002
2.317350e+002, 5.637596e+002
2.322171e+002, 5.640497e+002
2.326992e+002, 5.661184e+002
2.331813e+002, 5.678541e+002
2.336634e+002, 5.696461e+002
2.341456e+002, 5.705156e+002
2.346277e+002, 5.695562e+002
2.351098e+002, 5.679442e+002
2.355919e+002, 5.672033e+002
2.360740e+002, 5.680419e+002
2.365561e+002, 5.697213e+002
2.370383e+002, 5.700513e+002
2.375204e+002, 5.681806e+002
2.380025e+002, 5.658362e+002
2.384846e+002, 5.617868e+002
2.389667e+002, 5.577366e+002
2.394488e+002, 5.560917e+002
2.399310e+002, 5.579025e+002
2.404131e+002, 5.617727e+002
2.408952e+002, 5.641742e+002
2.413773e+002, 5.643756e+002
2.418594e+002, 5.641337e+002
2.423415e+002, 5.627429e+002
2.428237e+002, 5.612513e+002
2.433058e+002, 5.613297e+002
2.437879e+002, 5.636990e+002
2.442700e+002, 5.670309e+002
2.447521e+002, 5.683879e+002
2.452342e+002, 5.666194e+002
2.457164e+002, 5.653143e+002
2.461985e+002, 5.653693e+002
2.466806e+002, 5.660726e+002
2.471627e+002, 5.664167e+002
2.476448e+002, 5.660412e+002
2.481269e+002, 5.653878e+002
2.486091e+002, 5.652496e+002
2.490912e+002, 5.657241e+002
2.495733e+002, 5.662414e+002
2.500554e+002, 5.667710e+002
2.505375e+002, 5.672609e+002
2.510196e+002, 5.675915e+002
2.515018e+002, 5.677058e+002
2.519839e+002, 5.677896e+002
2.524660e+002, 5.681444e+002
2.529481e+002, 5.687816e+002
2.534302e+002, 5.694324e+002
2.539123e+002, 5.702701e+002
2.543945e+002, 5.710242e+002
2.548766e+002, 5.709922e+002
2.553587e+002, 5.697742e+002
2.558408e+002, 5.687438e+002
2.563229e+002, 5.703038e+002
2.568051e+002, 5.740654e+002
2.572872e+002, 5.766823e+002
2.577693e+002, 5.765439e+002
2.582514e+002, 5.748695e+002
2.587335e+002, 5.734445e+002
2.592156e+002, 5.724132e+002
2.596978e+002, 5.719584e+002
2.601799e+002, 5.726077e+002
2.606620e+002, 5.740647e+002
2.611441e+002, 5.754786e+002
2.616262e+002, 5.770828e+002
2.621083e+002, 5.783272e+002
2.625905e+002, 5.779510e+002
2.630726e+002, 5.753969e+002
2.635547e+002, 5.729681e+002
2.640368e+002, 5.728657e+002
2.645189e+002, 5.742278e+002
2.650010e+002, 5.754889e+002
2.654832e+002, 5.765924e+002
2.659653e+002, 5.771486e+002
2.664474e+002, 5.761277e+002
2.669295e+002, 5.730120e+002
2.674116e+002, 5.702736e+002
2.678937e+002, 5.703082e+002
2.683759e+002, 5.715463e+002
2.688580e+002, 5.718007e+002
2.693401e+002, 5.701013e+002
2.698222e+002, 5.673907e+002
2.703043e+002, 5.648129e+002
2.707864e+002, 5.622422e+002
2.712686e+002, 5.603572e+002
2.717507e+002, 5.600350e+002
2.722328e+002, 5.603971e+002
2.727149e+002, 5.607178e+002
2.731970e+002, 5.610096e+002
2.736791e+002, 5.607546e+002
2.741613e+002, 5.586511e+002
2.746434e+002, 5.540422e+002
2.751255e+002, 5.508806e+002
2.756076e+002, 5.523392e+002
2.760897e+002, 5.551061e+002
2.765718e+002, 5.565213e+002
2.770540e+002, 5.558553e+002
2.775361e+002, 5.546656e+002
2.780182e+002, 5.547887e+002
2.785003e+002, 5.563869e+002
2.789824e+002, 5.582020e+002
2.794645e+002, 5.607300e+002
2.799467e+002, 5.628207e+002
2.804288e+002, 5.633928e+002
2.809109e+002, 5.623151e+002
2.813930e+002, 5.608664e+002
2.818751e+002, 5.604198e+002
2.823572e+002, 5.610764e+002
2.828394e+002, 5.615002e+002
2.833215e+002, 5.612015e+002
2.838036e+002, 5.608405e+002
2.842857e+002, 5.606873e+002
2.847678e+002, 5.607912e+002
2.852499e+002, 5.612051e+002
2.857321e+002, 5.621526e+002
2.862142e+002, 5.636481e+002
2.866963e+002, 5.647998e+002
2.871784e+002, 5.656351e+002
2.876605e+002, 5.659628e+002
2.881426e+002, 5.651195e+002
2.886248e+002, 5.635698e+002
2.891069e+002, 5.626898e+002
2.895890e+002, 5.636832e+002
2.900711e+002, 5.664113e+002
2.905532e+002, 5.691432e+002
2.910353e+002, 5.724810e+002
2.915175e+002, 5.749987e+002
2.919996e+002, 5.758421e+002
2.924817e+002, 5.755627e+002
2.929638e+002, 5.752062e+002
2.934459e+002, 5.754789e+002
2.939280e+002, 5.761533e+002
2.944102e+002, 5.761976e+002
2.948923e+002, 5.754510e+002
2.953744e+002, 5.742714e+002
2.958565e+002, 5.727211e+002
2.963386e+002, 5.709075e+002
2.968207e+002, 5.689712e+002
2.973029e+002, 5.669933e+002
2.977850e+002, 5.649337e+002
2.982671e+002, 5.626624e+002
2.987492e+002, 5.600366e+002
2.992313e+002, 5.574989e+002
2.997134e+002, 5.554281e+002
3.001956e+002, 5.533516e+002
3.006777e+002, 5.508499e+002
3.011598e+002, 5.477715e+002
3.016419e+002, 5.442699e+002
3.021240e+002, 5.404829e+002
3.026061e+002, 5.361076e+002
3.030883e+002, 5.323219e+002
3.035704e+002, 5.290426e+002
3.040525e+002, 5.264956e+002
3.045346e+002, 5.253075e+002
3.050167e+002, 5.254304e+002
3.054988e+002, 5.256329e+002
3.059810e+002, 5.241957e+002
3.064631e+002, 5.206160e+002
3.069452e+002, 5.177109e+002
3.074273e+002, 5.164012e+002
3.079094e+002, 5.152090e+002
3.083915e+002, 5.132095e+002
3.088737e+002, 5.105629e+002
3.093558e+002, 5.082039e+002
3.098379e+002, 5.072002e+002
3.103200e+002, 5.076368e+002
3.108021e+002, 5.075766e+002
3.112842e+002, 5.068212e+002
3.117664e+002, 5.057040e+002
3.122485e+002, 5.040225e+002
3.127306e+002, 5.020725e+002
3.132127e+002, 5.004535e+002
3.136948e+002, 4.997057e+002
3.141769e+002, 4.996284e+002
3.146591e+002, 4.989176e+002
3.151412e+002, 4.968905e+002
3.156233e+002, 4.951725e+002
3.161054e+002, 4.942021e+002
3.165875e+002, 4.937949e+002
3.170696e+002, 4.937977e+002
3.175518e+002, 4.942130e+002
3.180339e+002, 4.947631e+002
3.185160e+002, 4.948004e+002
3.189981e+002, 4.944561e+002
3.194802e+002, 4.932604e+002
3.199623e+002, 4.899814e+002
3.204445e+002, 4.865405e+002
3.209266e+002, 4.849509e+002
3.214087e+002, 4.858018e+002
3.218908e+002, 4.875275e+002
3.223729e+002, 4.877428e+002
3.228550e+002, 4.860360e+002
3.233372e+002, 4.842672e+002
3.238193e+002, 4.821527e+002
3.243014e+002, 4.804283e+002
3.247835e+002, 4.797236e+002
3.252656e+002, 4.800072e+002
3.257477e+002, 4.805402e+002
3.262299e+002, 4.806462e+002
3.267120e+002, 4.803048e+002
3.271941e+002, 4.796796e+002
3.276762e+002, 4.786568e+002
3.281583e+002, 4.774103e+002
3.286404e+002, 4.754529e+002
3.291226e+002, 4.732473e+002
3.296047e+002, 4.720286e+002
3.300868e+002, 4.731977e+002
3.305689e+002, 4.762271e+002
3.310510e+002, 4.774104e+002
3.315331e+002, 4.752675e+002
3.320153e+002, 4.734374e+002
3.324974e+002, 4.737900e+002
3.329795e+002, 4.751437e+002
3.334616e+002, 4.757966e+002
3.339437e+002, 4.749302e+002
3.344258e+002, 4.729626e+002
3.349080e+002, 4.705567e+002
3.353901e+002, 4.671171e+002
3.358722e+002, 4.648382e+002
3.363543e+002, 4.655237e+002
3.368365e+002, 4.669711e+002
3.373186e+002, 4.671168e+002
3.378007e+002, 4.653442e+002
3.382828e+002, 4.631284e+002
3.387649e+002, 4.623629e+002
3.392470e+002, 4.632454e+002
3.397292e+002, 4.641182e+002
3.402113e+002, 4.648738e+002
3.406934e+002, 4.653384e+002
3.411755e+002, 4.653268e+002
3.416576e+002, 4.648555e+002
3.421397e+002, 4.641877e+002
3.426219e+002, 4.635319e+002
3.431040e+002, 4.628681e+002
3.435861e+002, 4.619735e+002
3.440682e+002, 4.604263e+002
3.445503e+002, 4.592195e+002
3.450324e+002, 4.591298e+002
3.455146e+002, 4.597867e+002
3.459967e+002, 4.602598e+002
3.464788e+002, 4.599056e+002
3.469609e+002, 4.590859e+002
3.474430e+002, 4.588554e+002
3.479251e+002, 4.596315e+002
3.484073e+002, 4.598268e+002
3.488894e+002, 4.577433e+002
3.493715e+002, 4.549276e+002
3.498536e+002, 4.533720e+002
3.503357e+002, 4.540328e+002
3.508178e+002, 4.552816e+002
3.513000e+002, 4.551056e+002
3.517821e+002, 4.534388e+002
3.522642e+002, 4.517547e+002
3.527463e+002, 4.503530e+002
3.532284e+002, 4.493168e+002
3.537105e+002, 4.489366e+002
3.541927e+002, 4.493297e+002
3.546748e+002, 4.493321e+002
3.551569e+002, 4.479764e+002
3.556390e+002, 4.455069e+002
3.561211e+002, 4.428724e+002
3.566032e+002, 4.399026e+002
3.570854e+002, 4.374035e+002
3.575675e+002, 4.364275e+002
3.580496e+002, 4.366575e+002
3.585317e+002, 4.366196e+002
3.590138e+002, 4.354334e+002
3.594959e+002, 4.337401e+002
3.599781e+002, 4.326003e+002
3.604602e+002, 4.321423e+002
3.609423e+002, 4.317759e+002
3.614244e+002, 4.309891e+002
3.619065e+002, 4.300085e+002
3.623886e+002, 4.294304e+002
3.628708e+002, 4.298836e+002
3.633529e+002, 4.301973e+002
3.638350e+002, 4.291980e+002
3.643171e+002, 4.270722e+002
3.647992e+002, 4.250217e+002
3.652813e+002, 4.234272e+002
3.657635e+002, 4.223819e+002
3.662456e+002, 4.222059e+002
3.667277e+002, 4.234214e+002
3.672098e+002, 4.238768e+002
3.676919e+002, 4.220158e+002
3.681740e+002, 4.189130e+002
3.686562e+002, 4.166019e+002
3.691383e+002, 4.156217e+002
3.696204e+002, 4.153114e+002
3.701025e+002, 4.150386e+002
3.705846e+002, 4.148311e+002
3.710667e+002, 4.142601e+002
3.715489e+002, 4.125945e+002
3.720310e+002, 4.109888e+002
3.725131e+002, 4.108032e+002
3.729952e+002, 4.119798e+002
3.734773e+002, 4.130501e+002
3.739594e+002, 4.129578e+002
3.744416e+002, 4.117518e+002
3.749237e+002, 4.103768e+002
3.754058e+002, 4.082913e+002
3.758879e+002, 4.066287e+002
3.763700e+002, 4.061118e+002
3.768521e+002, 4.063324e+002
3.773343e+002, 4.065044e+002
3.778164e+002, 4.062996e+002
3.782985e+002, 4.057396e+002
3.787806e+002, 4.048223e+002
3.792627e+002, 4.028802e+002
3.797448e+002, 4.017186e+002
3.802270e+002, 4.019691e+002
3.807091e+002, 4.027713e+002
3.811912e+002, 4.035007e+002
3.816733e+002, 4.039633e+002
3.821554e+002, 4.039606e+002
3.826375e+002, 4.031367e+002
3.831197e+002, 4.011236e+002
3.836018e+002, 4.002373e+002
3.840839e+002, 4.011371e+002
3.845660e+002, 4.023029e+002
3.850481e+002, 4.035509e+002
3.855302e+002, 4.045156e+002
3.860124e+002, 4.043201e+002
3.864945e+002, 4.022177e+002
3.869766e+002, 3.988212e+002
3.874587e+002, 3.974131e+002
3.879408e+002, 4.005022e+002
3.884229e+002, 4.026548e+002
3.889051e+002, 4.031236e+002
3.893872e+002, 4.025052e+002
3.898693e+002, 4.010956e+002
3.903514e+002, 3.990919e+002
3.908335e+002, 3.971851e+002
3.913156e+002, 3.966262e+002
3.917978e+002, 3.981104e+002
3.922799e+002, 3.990462e+002
3.927620e+002, 3.993676e+002
3.932441e+002, 3.992130e+002
3.937262e+002, 3.981029e+002
3.942083e+002, 3.964447e+002
3.946905e+002, 3.955070e+002
3.951726e+002, 3.966186e+002
3.956547e+002, 3.994783e+002
3.961368e+002, 4.008717e+002
3.966189e+002, 3.996178e+002
3.971010e+002, 3.985391e+002
3.975832e+002, 3.989150e+002
3.980653e+002, 3.998312e+002
3.985474e+002, 4.000930e+002
3.990295e+002, 3.992026e+002
3.995116e+002, 3.976140e+002
3.999937e+002, 3.957328e+002
4.004759e+002, 3.932800e+002
4.009580e+002, 3.920139e+002
4.014401e+002, 3.934462e+002
4.019222e+002, 3.954722e+002
4.024043e+002, 3.966557e+002
4.028864e+002, 3.969213e+002
4.033686e+002, 3.970700e+002
4.038507e+002, 3.978704e+002
4.043328e+002, 3.990875e+002
4.048149e+002, 3.995125e+002
4.052970e+002, 3.985580e+002
4.057791e+002, 3.978829e+002
4.062613e+002, 3.989604e+002
4.067434e+002, 4.011069e+002
4.072255e+002, 4.030128e+002
4.077076e+002, 4.042704e+002
4.081897e+002, 4.051284e+002
4.086718e+002, 4.058764e+002
4.091540e+002, 4.065070e+002
4.096361e+002, 4.066874e+002
4.101182e+002, 4.057950e+002
4.106003e+002, 4.047965e+002
4.110824e+002, 4.054695e+002
4.115645e+002, 4.082680e+002
4.120467e+002, 4.108539e+002
4.125288e+002, 4.120453e+002
4.130109e+002, 4.123950e+002
4.134930e+002, 4.129745e+002
4.139751e+002, 4.140429e+002
4.144572e+002, 4.148359e+002
4.149394e+002, 4.141105e+002
4.154215e+002, 4.118089e+002
4.159036e+002, 4.115663e+002
4.163857e+002, 4.152351e+002
4.168678e+002, 4.195269e+002
4.173499e+002, 4.222384e+002
4.178321e+002, 4.236679e+002
4.183142e+002, 4.252556e+002
4.187963e+002, 4.277935e+002
4.192784e+002, 4.310373e+002
4.197605e+002, 4.341397e+002
4.202426e+002, 4.363780e+002
4.207248e+002, 4.394739e+002
4.212069e+002, 4.447965e+002
4.216890e+002, 4.504563e+002
4.221711e+002, 4.541036e+002
4.226532e+002, 4.553746e+002
4.231353e+002, 4.562305e+002
4.236175e+002, 4.590636e+002
4.240996e+002, 4.643295e+002
4.245817e+002, 4.692529e+002
4.250638e+002, 4.734875e+002
4.255459e+002, 4.777684e+002
4.260280e+002, 4.824666e+002
4.265102e+002, 4.874284e+002
4.269923e+002, 4.922444e+002
4.274744e+002, 4.966303e+002
4.279565e+002, 5.008631e+002
4.284386e+002, 5.058773e+002
4.289207e+002, 5.126734e+002
4.294029e+002, 5.184318e+002
4.298850e+002, 5.229139e+002
4.303671e+002, 5.263027e+002
4.308492e+002, 5.285114e+002
4.313313e+002, 5.296188e+002
4.318134e+002, 5.300538e+002
4.322956e+002, 5.301781e+002
4.327777e+002, 5.299881e+002
4.332598e+002, 5.296495e+002
4.337419e+002, 5.293250e+002
4.342241e+002, 5.286010e+002
4.347062e+002, 5.268082e+002
4.351883e+002, 5.245749e+002
4.356704e+002, 5.231232e+002
4.361525e+002, 5.231213e+002
4.366346e+002, 5.239684e+002
4.371168e+002, 5.250714e+002
4.375989e+002, 5.265476e+002
4.380810e+002, 5.269983e+002
4.385631e+002, 5.252574e+002
4.390452e+002, 5.227393e+002
4.395273e+002, 5.208740e+002
4.400095e+002, 5.196915e+002
4.404916e+002, 5.193527e+002
4.409737e+002, 5.209271e+002
4.414558e+002, 5.232278e+002
4.419379e+002, 5.234264e+002
4.424200e+002, 5.208757e+002
4.429022e+002, 5.181194e+002
4.433843e+002, 5.172796e+002
4.438664e+002, 5.180939e+002
4.443485e+002, 5.186072e+002
4.448306e+002, 5.183301e+002
4.453127e+002, 5.181071e+002
4.457949e+002, 5.186601e+002
4.462770e+002, 5.196631e+002
4.467591e+002, 5.202736e+002
4.472412e+002, 5.201571e+002
4.477233e+002, 5.194532e+002
4.482054e+002, 5.183370e+002
4.486876e+002, 5.163275e+002
4.491697e+002, 5.150317e+002
4.496518e+002, 5.151478e+002
4.501339e+002, 5.155480e+002
4.506160e+002, 5.155634e+002
4.510981e+002, 5.150585e+002
4.515803e+002, 5.139371e+002
4.520624e+002, 5.120167e+002
4.525445e+002, 5.094055e+002
4.530266e+002, 5.075914e+002
4.535087e+002, 5.071780e+002
4.539908e+002, 5.069319e+002
4.544730e+002, 5.070365e+002
4.549551e+002, 5.070684e+002
4.554372e+002, 5.065200e+002
4.559193e+002, 5.052534e+002
4.564014e+002, 5.036202e+002
4.568835e+002, 5.020544e+002
4.573657e+002, 5.005300e+002
4.578478e+002, 4.991988e+002
4.583299e+002, 4.983966e+002
4.588120e+002, 4.974658e+002
4.592941e+002, 4.957242e+002
4.597762e+002, 4.936344e+002
4.602584e+002, 4.924102e+002
4.607405e+002, 4.932126e+002
4.612226e+002, 4.947127e+002
4.617047e+002, 4.936761e+002
4.621868e+002, 4.894033e+002
4.626689e+002, 4.859672e+002
4.631511e+002, 4.853777e+002
4.636332e+002, 4.859175e+002
4.641153e+002, 4.859126e+002
4.645974e+002, 4.852110e+002
4.650795e+002, 4.845523e+002
4.655616e+002, 4.847804e+002
4.660438e+002, 4.853154e+002
4.665259e+002, 4.846922e+002
4.670080e+002, 4.826075e+002
4.674901e+002, 4.802036e+002
4.679722e+002, 4.781788e+002
4.684543e+002, 4.765748e+002
4.689365e+002, 4.754042e+002
4.694186e+002, 4.748466e+002
4.699007e+002, 4.745412e+002
4.703828e+002, 4.750055e+002
4.708649e+002, 4.755384e+002
4.713470e+002, 4.742670e+002
4.718292e+002, 4.704037e+002
4.723113e+002, 4.656406e+002
4.727934e+002, 4.624577e+002
4.732755e+002, 4.612165e+002
4.737576e+002, 4.609089e+002
4.742397e+002, 4.627781e+002
4.747219e+002, 4.644486e+002
4.752040e+002, 4.644317e+002
4.756861e+002, 4.629572e+002
4.761682e+002, 4.609431e+002
4.766503e+002, 4.589327e+002
4.771324e+002, 4.569761e+002
4.776146e+002, 4.552977e+002
4.780967e+002, 4.538221e+002
4.785788e+002, 4.527712e+002
4.790609e+002, 4.525955e+002
4.795430e+002, 4.525049e+002
4.800251e+002, 4.517204e+002
4.805073e+002, 4.502482e+002
4.809894e+002, 4.488576e+002
4.814715e+002, 4.483280e+002
4.819536e+002, 4.486026e+002
4.824357e+002, 4.489522e+002
4.829178e+002, 4.497097e+002
4.834000e+002, 4.499461e+002
4.838821e+002, 4.487248e+002
4.843642e+002, 4.469750e+002
4.848463e+002, 4.460572e+002
4.853284e+002, 4.465661e+002
4.858105e+002, 4.471434e+002
4.862927e+002, 4.460878e+002
4.867748e+002, 4.437482e+002
4.872569e+002, 4.423954e+002
4.877390e+002, 4.427516e+002
4.882211e+002, 4.436975e+002
4.887032e+002, 4.441633e+002
4.891854e+002, 4.442196e+002
4.896675e+002, 4.441186e+002
4.901496e+002, 4.439696e+002
4.906317e+002, 4.436341e+002
4.911138e+002, 4.426934e+002
4.915959e+002, 4.414012e+002
4.920781e+002, 4.407846e+002
4.925602e+002, 4.414441e+002
4.930423e+002, 4.427497e+002
4.935244e+002, 4.433178e+002
4.940065e+002, 4.427634e+002
4.944886e+002, 4.421668e+002
4.949708e+002, 4.416956e+002
4.954529e+002, 4.410888e+002
4.959350e+002, 4.397756e+002
4.964171e+002, 4.380262e+002
4.968992e+002, 4.369250e+002
4.973813e+002, 4.373806e+002
4.978635e+002, 4.391057e+002
4.983456e+002, 4.403295e+002
4.988277e+002, 4.407761e+002
4.993098e+002, 4.410916e+002
4.997919e+002, 4.417258e+002
5.002740e+002, 4.420680e+002
5.007562e+002, 4.412069e+002
5.012383e+002, 4.391577e+002
5.017204e+002, 4.373288e+002
5.022025e+002, 4.372693e+002
5.026846e+002, 4.388351e+002
5.031667e+002, 4.403123e+002
5.036489e+002, 4.415247e+002
5.041310e+002, 4.429551e+002
5.046131e+002, 4.454260e+002
5.050952e+002, 4.481172e+002
5.055773e+002, 4.497278e+002
5.060594e+002, 4.497284e+002
5.065416e+002, 4.492075e+002
5.070237e+002, 4.484809e+002
5.075058e+002, 4.478822e+002
5.079879e+002, 4.489553e+002
5.084700e+002, 4.524768e+002
5.089521e+002, 4.561198e+002
5.094343e+002, 4.568110e+002
5.099164e+002, 4.545750e+002
5.103985e+002, 4.548238e+002
5.108806e+002, 4.602923e+002
5.113627e+002, 4.659554e+002
5.118448e+002, 4.687880e+002
5.123270e+002, 4.696433e+002
5.128091e+002, 4.708185e+002
5.132912e+002, 4.733123e+002
5.137733e+002, 4.761902e+002
5.142554e+002, 4.775661e+002
5.147375e+002, 4.757872e+002
5.152197e+002, 4.765186e+002
5.157018e+002, 4.813988e+002
5.161839e+002, 4.868769e+002
5.166660e+002, 4.914327e+002
5.171481e+002, 4.950609e+002
5.176302e+002, 4.981131e+002
5.181124e+002, 5.006920e+002
5.185945e+002, 5.031610e+002
5.190766e+002, 5.066606e+002
5.195587e+002, 5.117589e+002
5.200408e+002, 5.159946e+002
5.205229e+002, 5.175168e+002
5.210051e+002, 5.189659e+002
5.214872e+002, 5.222152e+002
5.219693e+002, 5.271412e+002
5.224514e+002, 5.322221e+002
5.229335e+002, 5.362599e+002
5.234156e+002, 5.399494e+002
5.238978e+002, 5.449446e+002
5.243799e+002, 5.513874e+002
5.248620e+002, 5.568628e+002
5.253441e+002, 5.597167e+002
5.258262e+002, 5.612184e+002
5.263083e+002, 5.639323e+002
5.267905e+002, 5.679258e+002
5.272726e+002, 5.727222e+002
5.277547e+002, 5.790134e+002
5.282368e+002, 5.855648e+002
5.287189e+002, 5.906251e+002
5.292010e+002, 5.942582e+002
5.296832e+002, 5.983039e+002
5.301653e+002, 6.043366e+002
5.306474e+002, 6.118906e+002
5.311295e+002, 6.180280e+002
5.316116e+002, 6.203415e+002
5.320938e+002, 6.242125e+002
5.325759e+002, 6.310447e+002
5.330580e+002, 6.390031e+002
5.335401e+002, 6.464200e+002
5.340222e+002, 6.530677e+002
5.345043e+002, 6.599749e+002
5.349865e+002, 6.683072e+002
5.354686e+002, 6.778923e+002
5.359507e+002, 6.864872e+002
5.364328e+002, 6.934927e+002
5.369149e+002, 7.007015e+002
5.373970e+002, 7.080951e+002
5.378792e+002, 7.163784e+002
5.383613e+002, 7.266077e+002
5.388434e+002, 7.391378e+002
5.393255e+002, 7.519684e+002
5.398076e+002, 7.636727e+002
5.402897e+002, 7.745164e+002
5.407719e+002, 7.847823e+002
5.412540e+002, 7.941797e+002
5.417361e+002, 8.050887e+002
5.422182e+002, 8.195181e+002
5.427003e+002, 8.369979e+002
5.431824e+002, 8.546866e+002
5.436646e+002, 8.723288e+002
5.441467e+002, 8.904336e+002
5.446288e+002, 9.090573e+002
5.451109e+002, 9.283597e+002
5.455930e+002, 9.482477e+002
5.460751e+002, 9.688585e+002
5.465573e+002, 9.908611e+002
5.470394e+002, 1.014918e+003
5.475215e+002, 1.040948e+003
5.480036e+002, 1.070421e+003
5.484857e+002, 1.106263e+003
5.489678e+002, 1.142836e+003
5.494500e+002, 1.178035e+003
5.499321e+002, 1.213975e+003
5.504142e+002, 1.253097e+003
5.508963e+002, 1.296098e+003
5.513784e+002, 1.341886e+003
5.518605e+002, 1.389092e+003
5.523427e+002, 1.437843e+003
5.528248e+002, 1.490501e+003
5.533069e+002, 1.548429e+003
5.537890e+002, 1.607592e+003
5.542711e+002, 1.662514e+003
5.547532e+002, 1.717726e+003
5.552354e+002, 1.780729e+003
5.557175e+002, 1.854752e+003
5.561996e+002, 1.931220e+003
5.566817e+002, 2.004922e+003
5.571638e+002, 2.077034e+003
5.576459e+002, 2.151267e+003
5.581281e+002, 2.228016e+003
5.586102e+002, 2.304471e+003
5.590923e+002, 2.378071e+003
5.595744e+002, 2.449029e+003
5.600565e+002, 2.519625e+003
5.605386e+002, 2.591990e+003
5.610208e+002, 2.661167e+003
5.615029e+002, 2.728703e+003
5.619850e+002, 2.791651e+003
5.624671e+002, 2.847289e+003
5.629492e+002, 2.894948e+003
5.634313e+002, 2.935239e+003
5.639135e+002, 2.968279e+003
5.643956e+002, 2.994253e+003
5.648777e+002, 3.017113e+003
5.653598e+002, 3.041360e+003
5.658419e+002, 3.054673e+003
5.663240e+002, 3.051512e+003
5.668062e+002, 3.038000e+003
5.672883e+002, 3.020010e+003
5.677704e+002, 2.998852e+003
5.682525e+002, 2.973216e+003
5.687346e+002, 2.941802e+003
5.692167e+002, 2.905097e+003
5.696989e+002, 2.864139e+003
5.701810e+002, 2.818541e+003
5.706631e+002, 2.771106e+003
5.711452e+002, 2.723704e+003
5.716273e+002, 2.675546e+003
5.721094e+002, 2.625358e+003
5.725916e+002, 2.572000e+003
5.730737e+002, 2.518875e+003
5.735558e+002, 2.467296e+003
5.740379e+002, 2.416077e+003
5.745200e+002, 2.364517e+003
5.750021e+002, 2.312548e+003
5.754843e+002, 2.260340e+003
5.759664e+002, 2.207994e+003
5.764485e+002, 2.156023e+003
5.769306e+002, 2.107833e+003
5.774127e+002, 2.067228e+003
5.778948e+002, 2.024442e+003
5.783770e+002, 1.975281e+003
5.788591e+002, 1.926120e+003
5.793412e+002, 1.881543e+003
5.798233e+002, 1.842055e+003
5.803054e+002, 1.804771e+003
5.807875e+002, 1.768521e+003
5.812697e+002, 1.732844e+003
5.817518e+002, 1.696779e+003
5.822339e+002, 1.660078e+003
5.827161e+002, 1.624423e+003
5.831982e+002, 1.589995e+003
5.836803e+002, 1.557687e+003
5.841624e+002, 1.529509e+003
5.846445e+002, 1.505739e+003
5.851266e+002, 1.480963e+003
5.856088e+002, 1.452518e+003
5.860909e+002, 1.423444e+003
5.865730e+002, 1.396194e+003
5.870551e+002, 1.370773e+003
5.875372e+002, 1.346120e+003
5.880193e+002, 1.321891e+003
5.885015e+002, 1.298343e+003
5.889836e+002, 1.276124e+003
5.894657e+002, 1.255224e+003
5.899478e+002, 1.235795e+003
5.904299e+002, 1.218167e+003
5.909120e+002, 1.201452e+003
5.913942e+002, 1.186066e+003
5.918763e+002, 1.171203e+003
5.923584e+002, 1.155047e+003
5.928405e+002, 1.136257e+003
5.933226e+002, 1.117529e+003
5.938047e+002, 1.103523e+003
5.942869e+002, 1.094089e+003
5.947690e+002, 1.084006e+003
5.952511e+002, 1.072278e+003
5.957332e+002, 1.059708e+003
5.962153e+002, 1.046089e+003
5.966974e+002, 1.032001e+003
5.971796e+002, 1.019774e+003
5.976617e+002, 1.012328e+003
5.981438e+002, 1.003958e+003
5.986259e+002, 9.898677e+002
5.991080e+002, 9.732215e+002
5.995901e+002, 9.599611e+002
6.000723e+002, 9.514445e+002
6.005544e+002, 9.440534e+002
6.010365e+002, 9.338594e+002
6.015186e+002, 9.207633e+002
6.020007e+002, 9.088586e+002
6.024828e+002, 8.993986e+002
6.029650e+002, 8.896249e+002
6.034471e+002, 8.792287e+002
6.039292e+002, 8.682516e+002
6.044113e+002, 8.564917e+002
6.048934e+002, 8.440555e+002
6.053755e+002, 8.315245e+002
6.058577e+002, 8.189872e+002
6.063398e+002, 8.067595e+002
6.068219e+002, 7.961918e+002
6.073040e+002, 7.875729e+002
6.077861e+002, 7.789719e+002
6.082682e+002, 7.695226e+002
6.087504e+002, 7.595255e+002
6.092325e+002, 7.495026e+002
6.097146e+002, 7.394966e+002
6.101967e+002, 7.292601e+002
6.106788e+002, 7.181796e+002
6.111609e+002, 7.071774e+002
6.116431e+002, 6.969655e+002
6.121252e+002, 6.875825e+002
6.126073e+002, 6.790712e+002
6.130894e+002, 6.714917e+002
6.135715e+002, 6.644878e+002
6.140536e+002, 6.573906e+002
6.145358e+002, 6.506635e+002
6.150179e+002, 6.427766e+002
6.155000e+002, 6.318804e+002
6.159821e+002, 6.216786e+002
6.164642e+002, 6.138251e+002
6.169464e+002, 6.077586e+002
6.174285e+002, 6.022699e+002
6.179106e+002, 5.968985e+002
6.183927e+002, 5.918256e+002
6.188748e+002, 5.878268e+002
6.193569e+002, 5.844703e+002
6.198391e+002, 5.791722e+002
6.203212e+002, 5.712069e+002
6.208033e+002, 5.625223e+002
6.212854e+002, 5.541984e+002
6.217675e+002, 5.464999e+002
6.222496e+002, 5.406219e+002
6.227318e+002, 5.373557e+002
6.232139e+002, 5.347958e+002
6.236960e+002, 5.331596e+002
6.241781e+002, 5.315670e+002
6.246602e+002, 5.289769e+002
6.251423e+002, 5.253646e+002
6.256245e+002, 5.214274e+002
6.261066e+002, 5.176053e+002
6.265887e+002, 5.140544e+002
6.270708e+002, 5.116536e+002
6.275529e+002, 5.113685e+002
6.280350e+002, 5.099070e+002
6.285172e+002, 5.050500e+002
6.289993e+002, 4.999615e+002
6.294814e+002, 4.967153e+002
6.299635e+002, 4.951649e+002
6.304456e+002, 4.939371e+002
6.309277e+002, 4.925565e+002
6.314099e+002, 4.910880e+002
6.318920e+002, 4.897088e+002
6.323741e+002, 4.883299e+002
6.328562e+002, 4.865482e+002
6.333383e+002, 4.842203e+002
6.338204e+002, 4.815522e+002
6.343026e+002, 4.786346e+002
6.347847e+002, 4.753280e+002
6.352668e+002, 4.731369e+002
6.357489e+002, 4.736012e+002
6.362310e+002, 4.731651e+002
6.367131e+002, 4.699339e+002
6.371953e+002, 4.656929e+002
6.376774e+002, 4.625573e+002
6.381595e+002, 4.609607e+002
6.386416e+002, 4.598888e+002
6.391237e+002, 4.585968e+002
6.396058e+002, 4.570184e+002
6.400880e+002, 4.544296e+002
6.405701e+002, 4.502788e+002
6.410522e+002, 4.474041e+002
6.415343e+002, 4.475060e+002
6.420164e+002, 4.490160e+002
6.424985e+002, 4.501657e+002
6.429807e+002, 4.510430e+002
6.434628e+002, 4.503927e+002
6.439449e+002, 4.465967e+002
6.444270e+002, 4.422144e+002
6.449091e+002, 4.392151e+002
6.453912e+002, 4.373672e+002
6.458734e+002, 4.356641e+002
6.463555e+002, 4.337063e+002
6.468376e+002, 4.321137e+002
6.473197e+002, 4.321518e+002
6.478018e+002, 4.344478e+002
6.482839e+002, 4.347682e+002
6.487661e+002, 4.314635e+002
6.492482e+002, 4.281349e+002
6.497303e+002, 4.256645e+002
6.502124e+002, 4.238717e+002
6.506945e+002, 4.227283e+002
6.511766e+002, 4.222446e+002
6.516588e+002, 4.214460e+002
6.521409e+002, 4.190119e+002
6.526230e+002, 4.159275e+002
6.531051e+002, 4.143595e+002
6.535872e+002, 4.143987e+002
6.540693e+002, 4.147682e+002
6.545515e+002, 4.149661e+002
6.550336e+002, 4.148502e+002
6.555157e+002, 4.141116e+002
6.559978e+002, 4.125756e+002
6.564799e+002, 4.107516e+002
6.569620e+002, 4.081050e+002
6.574442e+002, 4.057126e+002
6.579263e+002, 4.044239e+002
6.584084e+002, 4.037419e+002
6.588905e+002, 4.026690e+002
6.593726e+002, 4.008151e+002
6.598547e+002, 3.987248e+002
6.603369e+002, 3.972108e+002
6.608190e+002, 3.962160e+002
6.613011e+002, 3.947430e+002
6.617832e+002, 3.924462e+002
6.622653e+002, 3.905114e+002
6.627474e+002, 3.899121e+002
6.632296e+002, 3.899730e+002
6.637117e+002, 3.894579e+002
6.641938e+002, 3.884149e+002
6.646759e+002, 3.865573e+002
6.651580e+002, 3.829156e+002
6.656401e+002, 3.790803e+002
6.661223e+002, 3.763172e+002
6.666044e+002, 3.746868e+002
6.670865e+002, 3.741797e+002
6.675686e+002, 3.748374e+002
6.680507e+002, 3.758989e+002
6.685328e+002, 3.760454e+002
6.690150e+002, 3.753524e+002
6.694971e+002, 3.733036e+002
6.699792e+002, 3.681697e+002
6.704613e+002, 3.638922e+002
6.709434e+002, 3.625184e+002
6.714255e+002, 3.628629e+002
6.719077e+002, 3.633057e+002
6.723898e+002, 3.636346e+002
6.728719e+002, 3.633948e+002
6.733540e+002, 3.618992e+002
6.738361e+002, 3.598394e+002
6.743182e+002, 3.581131e+002
6.748004e+002, 3.568403e+002
6.752825e+002, 3.563658e+002
6.757646e+002, 3.570867e+002
6.762467e+002, 3.581109e+002
6.767288e+002, 3.572685e+002
6.772109e+002, 3.532646e+002
6.776931e+002, 3.504058e+002
6.781752e+002, 3.492185e+002
6.786573e+002, 3.485096e+002
6.791394e+002, 3.481880e+002
6.796215e+002, 3.478753e+002
6.801036e+002, 3.467862e+002
6.805858e+002, 3.445739e+002
6.810679e+002, 3.427770e+002
6.815500e+002, 3.437346e+002
6.820321e+002, 3.462039e+002
6.825142e+002, 3.462243e+002
6.829963e+002, 3.433529e+002
6.834785e+002, 3.407073e+002
6.839606e+002, 3.401126e+002
6.844427e+002, 3.407066e+002
6.849248e+002, 3.404609e+002
6.854069e+002, 3.389075e+002
6.858890e+002, 3.376023e+002
6.863712e+002, 3.366402e+002
6.868533e+002, 3.358802e+002
6.873354e+002, 3.353732e+002
6.878175e+002, 3.349818e+002
6.882996e+002, 3.345511e+002
6.887817e+002, 3.340209e+002
6.892639e+002, 3.332336e+002
6.897460e+002, 3.314681e+002
6.902281e+002, 3.290683e+002
6.907102e+002, 3.288657e+002
6.911923e+002, 3.315374e+002
6.916744e+002, 3.338185e+002
6.921566e+002, 3.339293e+002
6.926387e+002, 3.327596e+002
6.931208e+002, 3.319706e+002
6.936029e+002, 3.315567e+002
6.940850e+002, 3.314346e+002
6.945671e+002, 3.321990e+002
6.950493e+002, 3.326684e+002
6.955314e+002, 3.315844e+002
6.960135e+002, 3.297370e+002
6.964956e+002, 3.288156e+002
6.969777e+002, 3.293966e+002
6.974598e+002, 3.304156e+002
6.979420e+002, 3.304148e+002
6.984241e+002, 3.294510e+002
6.989062e+002, 3.290452e+002
6.993883e+002, 3.292939e+002
6.998704e+002, 3.298509e+002
7.003525e+002, 3.308732e+002
7.008347e+002, 3.319229e+002
7.013168e+002, 3.322941e+002
7.017989e+002, 3.319012e+002
7.022810e+002, 3.318566e+002
7.027631e+002, 3.327577e+002
7.032452e+002, 3.338261e+002
7.037274e+002, 3.344722e+002
7.042095e+002, 3.348703e+002
7.046916e+002, 3.355581e+002
7.051737e+002, 3.366544e+002
7.056558e+002, 3.374404e+002
7.061379e+002, 3.367134e+002
7.066201e+002, 3.346607e+002
7.071022e+002, 3.351146e+002
7.075843e+002, 3.394729e+002
7.080664e+002, 3.430316e+002
7.085485e+002, 3.436437e+002
7.090306e+002, 3.432990e+002
7.095128e+002, 3.440869e+002
7.099949e+002, 3.459105e+002
7.104770e+002, 3.466198e+002
7.109591e+002, 3.443729e+002
7.114412e+002, 3.419004e+002
7.119233e+002, 3.412150e+002
7.124055e+002, 3.417414e+002
7.128876e+002, 3.426560e+002
7.133697e+002, 3.436284e+002
7.138518e+002, 3.439388e+002
7.143339e+002, 3.427049e+002
7.148160e+002, 3.402487e+002
7.152982e+002, 3.391699e+002
7.157803e+002, 3.406682e+002
7.162624e+002, 3.406998e+002
7.167445e+002, 3.362444e+002
7.172266e+002, 3.319718e+002
7.177087e+002, 3.318110e+002
7.181909e+002, 3.348110e+002
7.186730e+002, 3.367332e+002
7.191551e+002, 3.358730e+002
7.196372e+002, 3.340908e+002
7.201193e+002, 3.323997e+002
7.206014e+002, 3.307169e+002
7.210836e+002, 3.287360e+002
7.215657e+002, 3.265010e+002
7.220478e+002, 3.246108e+002
7.225299e+002, 3.235382e+002
7.230120e+002, 3.231158e+002
7.234941e+002, 3.229070e+002
7.239763e+002, 3.233609e+002
7.244584e+002, 3.227552e+002
7.249405e+002, 3.200869e+002
7.254226e+002, 3.171944e+002
7.259047e+002, 3.147304e+002
7.263868e+002, 3.128271e+002
7.268690e+002, 3.117095e+002
7.273511e+002, 3.115199e+002
7.278332e+002, 3.118869e+002
7.283153e+002, 3.130237e+002
7.287974e+002, 3.143525e+002
7.292795e+002, 3.153157e+002
7.297617e+002, 3.157476e+002
7.302438e+002, 3.151789e+002
7.307259e+002, 3.132776e+002
7.312080e+002, 3.107755e+002
7.316901e+002, 3.091429e+002
7.321722e+002, 3.085476e+002
7.326544e+002, 3.081577e+002
7.331365e+002, 3.081636e+002
7.336186e+002, 3.081068e+002
7.341007e+002, 3.078865e+002
7.345828e+002, 3.074624e+002
7.350649e+002, 3.065613e+002
7.355471e+002, 3.050627e+002
7.360292e+002, 3.042357e+002
7.365113e+002, 3.054720e+002
7.369934e+002, 3.070301e+002
7.374755e+002, 3.070236e+002
7.379576e+002, 3.058622e+002
7.384398e+002, 3.048400e+002
7.389219e+002, 3.044229e+002
7.394040e+002, 3.044191e+002
7.398861e+002, 3.046340e+002
7.403682e+002, 3.050630e+002
7.408503e+002, 3.054637e+002
7.413325e+002, 3.059400e+002
7.418146e+002, 3.061610e+002
7.422967e+002, 3.058694e+002
7.427788e+002, 3.053981e+002
7.432609e+002, 3.049691e+002
7.437430e+002, 3.045964e+002
7.442252e+002, 3.043130e+002
7.447073e+002, 3.045129e+002
7.451894e+002, 3.043976e+002
7.456715e+002, 3.031352e+002
7.461536e+002, 3.013505e+002
7.466357e+002, 2.998661e+002
7.471179e+002, 2.989090e+002
7.476000e+002, 2.986751e+002
7.480821e+002, 2.994016e+002
7.485642e+002, 3.007733e+002
7.490463e+002, 3.018040e+002
7.495284e+002, 3.024999e+002
7.500106e+002, 3.028445e+002
7.504927e+002, 3.027044e+002
7.509748e+002, 3.023978e+002
7.514569e+002, 3.021523e+002
7.519390e+002, 3.018983e+002
7.524211e+002, 3.014395e+002
7.529033e+002, 3.005768e+002
7.533854e+002, 2.999210e+002
7.538675e+002, 2.999682e+002
7.543496e+002, 3.001038e+002
7.548317e+002, 2.996805e+002
7.553138e+002, 2.988293e+002
7.557960e+002, 2.979484e+002
7.562781e+002, 2.972189e+002
7.567602e+002, 2.968781e+002
7.572423e+002, 2.975143e+002
7.577244e+002, 2.990762e+002
7.582065e+002, 2.999824e+002
7.586887e+002, 3.001415e+002
7.591708e+002, 2.998345e+002
7.596529e+002, 2.989413e+002
7.601350e+002, 2.978464e+002
7.606171e+002, 2.971925e+002
7.610992e+002, 2.970250e+002
7.615814e+002, 2.965960e+002
7.620635e+002, 2.956137e+002
7.625456e+002, 2.945837e+002
7.630277e+002, 2.932233e+002
7.635098e+002, 2.922151e+002
7.639919e+002, 2.928396e+002
7.644741e+002, 2.949892e+002
7.649562e+002, 2.968256e+002
7.654383e+002, 2.967859e+002
7.659204e+002, 2.956404e+002
7.664025e+002, 2.951612e+002
7.668846e+002, 2.953163e+002
7.673668e+002, 2.949451e+002
7.678489e+002, 2.935720e+002
7.683310e+002, 2.925224e+002
7.688131e+002, 2.932482e+002
7.692952e+002, 2.952464e+002
7.697773e+002, 2.956324e+002
7.702595e+002, 2.922015e+002
7.707416e+002, 2.904541e+002
7.712237e+002, 2.918274e+002
7.717058e+002, 2.939298e+002
7.721879e+002, 2.959144e+002
7.726700e+002, 2.973034e+002
7.731522e+002, 2.971308e+002
7.736343e+002, 2.948897e+002
7.741164e+002, 2.929035e+002
7.745985e+002, 2.944038e+002
7.750806e+002, 2.975023e+002
7.755627e+002, 2.974545e+002
7.760449e+002, 2.942861e+002
7.765270e+002, 2.914358e+002
7.770091e+002, 2.903797e+002
7.774912e+002, 2.904423e+002
7.779733e+002, 2.907000e+002
7.784554e+002, 2.912011e+002
7.789376e+002, 2.915331e+002
7.794197e+002, 2.917260e+002
7.799019e+002, 2.917012e+002
7.803840e+002, 2.910549e+002
7.808661e+002, 2.904764e+002
7.813482e+002, 2.907224e+002
7.818303e+002, 2.916920e+002
7.823124e+002, 2.925083e+002
7.827946e+002, 2.928156e+002
7.832767e+002, 2.928266e+002
7.837588e+002, 2.925713e+002
7.842409e+002, 2.921883e+002
7.847230e+002, 2.919178e+002
7.852051e+002, 2.917949e+002
7.856873e+002, 2.917194e+002
7.861694e+002, 2.916059e+002
7.866515e+002, 2.915620e+002
7.871336e+002, 2.920335e+002
7.876157e+002, 2.932744e+002
7.880978e+002, 2.935565e+002
7.885800e+002, 2.922379e+002
7.890621e+002, 2.908580e+002
7.895442e+002, 2.900268e+002
7.900263e+002, 2.897549e+002
7.905084e+002, 2.902110e+002
7.909905e+002, 2.916164e+002
7.914727e+002, 2.926427e+002
7.919548e+002, 2.924193e+002
7.924369e+002, 2.922618e+002
7.929190e+002, 2.933504e+002
7.934011e+002, 2.949516e+002
7.938832e+002, 2.957298e+002
7.943654e+002, 2.954222e+002
7.948475e+002, 2.949404e+002
7.953296e+002, 2.951721e+002
7.958117e+002, 2.957520e+002
7.962938e+002, 2.955615e+002
7.967759e+002, 2.946171e+002
7.972581e+002, 2.941001e+002
7.977402e+002, 2.943680e+002
7.982223e+002, 2.947632e+002
7.987044e+002, 2.946126e+002
7.991865e+002, 2.940997e+002
7.996686e+002, 2.943174e+002
8.001508e+002, 2.960156e+002
8.006329e+002, 2.973794e+002
8.011150e+002, 2.985003e+002
8.015971e+002, 2.991672e+002
8.020792e+002, 2.987358e+002
8.025613e+002, 2.979286e+002
8.030435e+002, 2.981089e+002
8.035256e+002, 2.997341e+002
8.040077e+002, 3.016066e+002
8.044898e+002, 3.030671e+002
8.049719e+002, 3.041090e+002
8.054540e+002, 3.047281e+002
8.059362e+002, 3.049253e+002
8.064183e+002, 3.045818e+002
8.069004e+002, 3.036596e+002
8.073825e+002, 3.026550e+002
8.078646e+002, 3.021297e+002
8.083467e+002, 3.020620e+002
8.088289e+002, 3.023309e+002
8.093110e+002, 3.034933e+002
8.097931e+002, 3.034055e+002
8.102752e+002, 3.004667e+002
8.107573e+002, 2.973855e+002
8.112394e+002, 2.966536e+002
8.117216e+002, 2.975602e+002
8.122037e+002, 2.978021e+002
8.126858e+002, 2.969215e+002
8.131679e+002, 2.956496e+002
8.136500e+002, 2.939597e+002
8.141321e+002, 2.921982e+002
8.146143e+002, 2.904679e+002
8.150964e+002, 2.889585e+002
8.155785e+002, 2.882062e+002
8.160606e+002, 2.884135e+002
8.165427e+002, 2.885201e+002
8.170248e+002, 2.870088e+002
8.175070e+002, 2.844124e+002
8.179891e+002, 2.825630e+002
8.184712e+002, 2.814841e+002
8.189533e+002, 2.809895e+002
8.194354e+002, 2.811618e+002
8.199175e+002, 2.813111e+002
8.203997e+002, 2.804781e+002
8.208818e+002, 2.786968e+002
8.213639e+002, 2.780483e+002
8.218460e+002, 2.800109e+002
8.223281e+002, 2.809005e+002
8.228102e+002, 2.794092e+002
8.232924e+002, 2.776236e+002
8.237745e+002, 2.771638e+002
8.242566e+002, 2.774937e+002
8.247387e+002, 2.769616e+002
8.252208e+002, 2.747548e+002
8.257029e+002, 2.727797e+002
8.261851e+002, 2.724988e+002
8.266672e+002, 2.728627e+002
8.271493e+002, 2.726436e+002
8.276314e+002, 2.719428e+002
8.281135e+002, 2.713611e+002
8.285956e+002, 2.711375e+002
8.290778e+002, 2.712120e+002
8.295599e+002, 2.716116e+002
8.300420e+002, 2.722506e+002
8.305241e+002, 2.726378e+002
8.310062e+002, 2.728299e+002
8.314883e+002, 2.721830e+002
8.319705e+002, 2.699441e+002
8.324526e+002, 2.679906e+002
8.329347e+002, 2.684462e+002
8.334168e+002, 2.709754e+002
8.338989e+002, 2.723286e+002
8.343810e+002, 2.714338e+002
8.348632e+002, 2.710366e+002
8.353453e+002, 2.721760e+002
8.358274e+002, 2.731146e+002
8.363095e+002, 2.725978e+002
8.367916e+002, 2.711178e+002
8.372737e+002, 2.696635e+002
8.377559e+002, 2.685119e+002
8.382380e+002, 2.676083e+002
8.387201e+002, 2.667975e+002
8.392022e+002, 2.662854e+002
8.396843e+002, 2.666073e+002
8.401664e+002, 2.674782e+002
8.406486e+002, 2.679537e+002
8.411307e+002, 2.677618e+002
8.416128e+002, 2.674578e+002
8.420949e+002, 2.676865e+002
8.425770e+002, 2.681708e+002
8.430591e+002, 2.673846e+002
8.435413e+002, 2.648930e+002
8.440234e+002, 2.634353e+002
8.445055e+002, 2.639045e+002
8.449876e+002, 2.645914e+002
8.454697e+002, 2.642424e+002
8.459518e+002, 2.632590e+002
8.464340e+002, 2.628306e+002
8.469161e+002, 2.631966e+002
8.473982e+002, 2.634538e+002
8.478803e+002, 2.636407e+002
8.483624e+002, 2.635560e+002
8.488445e+002, 2.626660e+002
8.493267e+002, 2.616658e+002
8.498088e+002, 2.615738e+002
8.502909e+002, 2.624966e+002
8.507730e+002, 2.635732e+002
8.512551e+002, 2.646331e+002
8.517372e+002, 2.651702e+002
8.522194e+002, 2.641667e+002
8.527015e+002, 2.622338e+002
8.531836e+002, 2.607896e+002
8.536657e+002, 2.600967e+002
8.541478e+002, 2.599641e+002
8.546299e+002, 2.603082e+002
8.551121e+002, 2.609052e+002
8.555942e+002, 2.612789e+002
8.560763e+002, 2.614182e+002
8.565584e+002, 2.613568e+002
8.570405e+002, 2.609853e+002
8.575226e+002, 2.606878e+002
8.580048e+002, 2.605498e+002
8.584869e+002, 2.606424e+002
8.589690e+002, 2.613438e+002
8.594511e+002, 2.627559e+002
8.599332e+002, 2.630278e+002
8.604153e+002, 2.607786e+002
8.608975e+002, 2.590782e+002
8.613796e+002, 2.592856e+002
8.618617e+002, 2.599717e+002
8.623438e+002, 2.597161e+002
8.628259e+002, 2.587977e+002
8.633080e+002, 2.585612e+002
8.637902e+002, 2.597715e+002
8.642723e+002, 2.609001e+002
8.647544e+002, 2.602496e+002
8.652365e+002, 2.589414e+002
8.657186e+002, 2.588070e+002
8.662007e+002, 2.596823e+002
8.666829e+002, 2.605120e+002
8.671650e+002, 2.608842e+002
8.676471e+002, 2.608856e+002
8.681292e+002, 2.605555e+002
8.686113e+002, 2.599539e+002
8.690934e+002, 2.595018e+002
8.695756e+002, 2.592696e+002
8.700577e+002, 2.585470e+002
8.705398e+002, 2.567856e+002
8.710219e+002, 2.555085e+002
8.715040e+002, 2.563715e+002
8.719861e+002, 2.585577e+002
8.724683e+002, 2.589703e+002
8.729504e+002, 2.559763e+002
8.734325e+002, 2.542555e+002
8.739146e+002, 2.548079e+002
8.743967e+002, 2.555381e+002
8.748788e+002, 2.554816e+002
8.753610e+002, 2.551359e+002
8.758431e+002, 2.553333e+002
8.763252e+002, 2.561209e+002
8.768073e+002, 2.564926e+002
8.772894e+002, 2.555366e+002
8.777715e+002, 2.544403e+002
8.782537e+002, 2.541901e+002
8.787358e+002, 2.543600e+002
8.792179e+002, 2.541596e+002
8.797000e+002, 2.536579e+002
8.801821e+002, 2.538272e+002
8.806642e+002, 2.553087e+002
8.811464e+002, 2.567999e+002
8.816285e+002, 2.557260e+002
8.821106e+002, 2.527437e+002
8.825927e+002, 2.518432e+002
8.830748e+002, 2.532579e+002
8.835569e+002, 2.546125e+002
8.840391e+002, 2.550865e+002
8.845212e+002, 2.548588e+002
8.850033e+002, 2.540320e+002
8.854854e+002, 2.526523e+002
8.859675e+002, 2.515507e+002
8.864496e+002, 2.507670e+002
8.869318e+002, 2.501878e+002
8.874139e+002, 2.495445e+002
8.878960e+002, 2.493867e+002
8.883781e+002, 2.505658e+002
8.888602e+002, 2.522912e+002
8.893423e+002, 2.529089e+002
8.898245e+002, 2.519774e+002
8.903066e+002, 2.511652e+002
8.907887e+002, 2.514141e+002
8.912708e+002, 2.513952e+002
8.917529e+002, 2.497045e+002
8.922350e+002, 2.475961e+002
8.927172e+002, 2.469867e+002
8.931993e+002, 2.479392e+002
8.936814e+002, 2.488581e+002
8.941635e+002, 2.487575e+002
8.946456e+002, 2.482434e+002
8.951277e+002, 2.477266e+002
8.956099e+002, 2.474374e+002
8.960920e+002, 2.483642e+002
8.965741e+002, 2.502740e+002
8.970562e+002, 2.510185e+002
8.975383e+002, 2.495255e+002
8.980204e+002, 2.474789e+002
8.985026e+002, 2.474098e+002
8.989847e+002, 2.491406e+002
8.994668e+002, 2.505523e+002
8.999489e+002, 2.517903e+002
9.004310e+002, 2.517381e+002
9.009131e+002, 2.495234e+002
9.013953e+002, 2.473027e+002
9.018774e+002, 2.470644e+002
9.023595e+002, 2.483340e+002
9.028416e+002, 2.489346e+002
9.033237e+002, 2.482293e+002
9.038058e+002, 2.480264e+002
9.042880e+002, 2.487451e+002
9.047701e+002, 2.494702e+002
9.052522e+002, 2.501074e+002
9.057343e+002, 2.503999e+002
9.062164e+002, 2.500229e+002
9.066985e+002, 2.489609e+002
9.071807e+002, 2.475169e+002
9.076628e+002, 2.445638e+002
9.081449e+002, 2.427067e+002
9.086270e+002, 2.443206e+002
9.091091e+002, 2.471326e+002
9.095912e+002, 2.487841e+002
9.100734e+002, 2.491883e+002
9.105555e+002, 2.490732e+002
9.110376e+002, 2.487334e+002
9.115197e+002, 2.485656e+002
9.120018e+002, 2.492647e+002
9.124839e+002, 2.503218e+002
9.129661e+002, 2.505873e+002
9.134482e+002, 2.501897e+002
9.139303e+002, 2.499453e+002
9.144124e+002, 2.500699e+002
9.148945e+002, 2.499898e+002
9.153766e+002, 2.490747e+002
9.158588e+002, 2.478381e+002
9.163409e+002, 2.481326e+002
9.168230e+002, 2.502034e+002
9.173051e+002, 2.513095e+002
9.177872e+002, 2.508109e+002
9.182693e+002, 2.507997e+002
9.187515e+002, 2.527543e+002
9.192336e+002, 2.551447e+002
9.197157e+002, 2.554685e+002
9.201978e+002, 2.534670e+002
9.206799e+002, 2.519606e+002
9.211620e+002, 2.505237e+002
9.216442e+002, 2.501990e+002
9.221263e+002, 2.520462e+002
9.226084e+002, 2.541906e+002
9.230905e+002, 2.555388e+002
9.235726e+002, 2.561794e+002
9.240547e+002, 2.564108e+002
9.245369e+002, 2.561786e+002
9.250190e+002, 2.559807e+002
9.255011e+002, 2.559272e+002
9.259832e+002, 2.560382e+002
9.264653e+002, 2.561972e+002
9.269474e+002, 2.566004e+002
9.274296e+002, 2.576855e+002
9.279117e+002, 2.593646e+002
9.283938e+002, 2.609138e+002
9.288759e+002, 2.618491e+002
9.293580e+002, 2.626355e+002
9.298401e+002, 2.636858e+002
9.303223e+002, 2.649901e+002
9.308044e+002, 2.666165e+002
9.312865e+002, 2.684908e+002
9.317686e+002, 2.702273e+002
9.322507e+002, 2.716831e+002
9.327328e+002, 2.734344e+002
9.332150e+002, 2.761577e+002
9.336971e+002, 2.796985e+002
9.341792e+002, 2.838198e+002
9.346613e+002, 2.885088e+002
9.351434e+002, 2.918339e+002
9.356255e+002, 2.931599e+002
9.361077e+002, 2.949185e+002
9.365898e+002, 2.987232e+002
9.370719e+002, 3.040049e+002
9.375540e+002, 3.096554e+002
9.380361e+002, 3.157788e+002
9.385182e+002, 3.214524e+002
9.390004e+002, 3.256771e+002
9.394825e+002, 3.314109e+002
9.399646e+002, 3.396795e+002
9.404467e+002, 3.496157e+002
9.409288e+002, 3.607657e+002
9.414109e+002, 3.729989e+002
9.418931e+002, 3.854503e+002
9.423752e+002, 3.963795e+002
9.428573e+002, 4.106883e+002
9.433394e+002, 4.304262e+002
9.438215e+002, 4.520323e+002
9.443036e+002, 4.727505e+002
9.447858e+002, 4.947032e+002
9.452679e+002, 5.207049e+002
9.457500e+002, 5.510617e+002
9.462321e+002, 5.842880e+002
9.467142e+002, 6.188222e+002
9.471964e+002, 6.572939e+002
9.476785e+002, 7.021930e+002
9.481606e+002, 7.514000e+002
9.486427e+002, 8.029637e+002
9.491248e+002, 8.565807e+002
9.496069e+002, 9.129672e+002
9.500891e+002, 9.721095e+002
9.505712e+002, 1.033615e+003
9.510533e+002, 1.099234e+003
9.515354e+002, 1.165606e+003
9.520175e+002, 1.228845e+003
9.524996e+002, 1.288190e+003
9.529818e+002, 1.342055e+003
9.534639e+002, 1.390040e+003
9.539460e+002, 1.430722e+003
9.544281e+002, 1.463381e+003
9.549102e+002, 1.487411e+003
9.553923e+002, 1.502323e+003
9.558745e+002, 1.507902e+003
9.563566e+002, 1.500774e+003
9.568387e+002, 1.480734e+003
9.573208e+002, 1.450240e+003
9.578029e+002, 1.409521e+003
9.582850e+002, 1.360673e+003
9.587672e+002, 1.304868e+003
9.592493e+002, 1.243122e+003
9.597314e+002, 1.178990e+003
9.602135e+002, 1.111712e+003
9.606956e+002, 1.043924e+003
9.611777e+002, 9.748109e+002
9.616599e+002, 9.073942e+002
9.621420e+002, 8.417557e+002
9.626241e+002, 7.800505e+002
9.631062e+002, 7.248113e+002
9.635883e+002, 6.761525e+002
9.640704e+002, 6.313293e+002
9.645526e+002, 5.908152e+002
9.650347e+002, 5.533051e+002
9.655168e+002, 5.178221e+002
9.659989e+002, 4.862418e+002
9.664810e+002, 4.607104e+002
9.669631e+002, 4.392631e+002
9.674453e+002, 4.187140e+002
9.679274e+002, 3.985469e+002
9.684095e+002, 3.804376e+002
9.688916e+002, 3.647958e+002
9.693737e+002, 3.512658e+002
9.698558e+002, 3.400057e+002
9.703380e+002, 3.304316e+002
9.708201e+002, 3.223147e+002
9.713022e+002, 3.154090e+002
9.717843e+002, 3.094241e+002
9.722664e+002, 3.043408e+002
9.727485e+002, 2.994323e+002
9.732307e+002, 2.936977e+002
9.737128e+002, 2.884203e+002
9.741949e+002, 2.852722e+002
9.746770e+002, 2.833037e+002
9.751591e+002, 2.808822e+002
9.756412e+002, 2.778295e+002
9.761234e+002, 2.748928e+002
9.766055e+002, 2.724880e+002
9.770876e+002, 2.701994e+002
9.775698e+002, 2.670761e+002
9.780519e+002, 2.638821e+002
9.785340e+002, 2.625704e+002
9.790161e+002, 2.627926e+002
9.794982e+002, 2.627783e+002
9.799803e+002, 2.620884e+002
9.804625e+002, 2.616014e+002
9.809446e+002, 2.620885e+002
9.814267e+002, 2.629812e+002
9.819088e+002, 2.631218e+002
9.823909e+002, 2.625330e+002
9.828730e+002, 2.611493e+002
9.833552e+002, 2.589381e+002
9.838373e+002, 2.575988e+002
9.843194e+002, 2.579016e+002
9.848015e+002, 2.582729e+002
9.852836e+002, 2.568863e+002
9.857657e+002, 2.542820e+002
9.862479e+002, 2.532615e+002
9.867300e+002, 2.541784e+002
9.872121e+002, 2.548041e+002
9.876942e+002, 2.548877e+002
9.881763e+002, 2.549178e+002
9.886584e+002, 2.551456e+002
9.891406e+002, 2.553812e+002
9.896227e+002, 2.552702e+002
9.901048e+002, 2.548214e+002
9.905869e+002, 2.550922e+002
9.910690e+002, 2.569903e+002
9.915511e+002, 2.578195e+002
9.920333e+002, 2.567079e+002
9.925154e+002, 2.552309e+002
9.929975e+002, 2.544600e+002
9.934796e+002, 2.537169e+002
9.939617e+002, 2.514487e+002
9.944438e+002, 2.473120e+002
9.949260e+002, 2.453733e+002
9.954081e+002, 2.474806e+002
9.958902e+002, 2.495867e+002
9.963723e+002, 2.509613e+002
9.968544e+002, 2.519660e+002
9.973365e+002, 2.530188e+002
9.978187e+002, 2.538376e+002
9.983008e+002, 2.536706e+002
9.987829e+002, 2.522872e+002
9.992650e+002, 2.512894e+002
9.997471e+002, 2.513732e+002
1.000229e+003, 2.516817e+002
1.000711e+003, 2.513394e+002
1.001193e+003, 2.514195e+002
1.001676e+003, 2.539263e+002
1.002158e+003, 2.576031e+002
1.002640e+003, 2.588672e+002
1.003122e+003, 2.564190e+002
1.003604e+003, 2.540390e+002
1.004086e+003, 2.537409e+002
1.004568e+003, 2.544685e+002
1.005050e+003, 2.561373e+002
1.005533e+003, 2.578387e+002
1.006015e+003, 2.581767e+002
1.006497e+003, 2.573445e+002
1.006979e+003, 2.565715e+002
1.007461e+003, 2.563804e+002
1.007943e+003, 2.565787e+002
1.008425e+003, 2.570145e+002
1.008907e+003, 2.577307e+002
1.009389e+003, 2.592361e+002
1.009872e+003, 2.609139e+002
1.010354e+003, 2.610926e+002
1.010836e+003, 2.598781e+002
1.011318e+003, 2.592432e+002
1.011800e+003, 2.603613e+002
1.012282e+003, 2.622377e+002
1.012764e+003, 2.641248e+002
1.013246e+003, 2.656570e+002
1.013729e+003, 2.656064e+002
1.014211e+003, 2.644604e+002
1.014693e+003, 2.641448e+002
1.015175e+003, 2.650482e+002
1.015657e+003, 2.662923e+002
1.016139e+003, 2.673316e+002
1.016621e+003, 2.679790e+002
1.017103e+003, 2.675391e+002
1.017585e+003, 2.664090e+002
1.018068e+003, 2.664960e+002
1.018550e+003, 2.677499e+002
1.019032e+003, 2.692060e+002
1.019514e+003, 2.705818e+002
1.019996e+003, 2.714290e+002
1.020478e+003, 2.713244e+002
1.020960e+003, 2.706443e+002
1.021442e+003, 2.699561e+002
1.021924e+003, 2.693143e+002
1.022407e+003, 2.706349e+002
1.022889e+003, 2.741605e+002
1.023371e+003, 2.760742e+002
1.023853e+003, 2.749269e+002
1.024335e+003, 2.736042e+002
1.024817e+003, 2.747799e+002
1.025299e+003, 2.775731e+002
1.025781e+003, 2.793744e+002
1.026264e+003, 2.801942e+002
1.026746e+003, 2.796689e+002
1.027228e+003, 2.772855e+002
1.027710e+003, 2.759942e+002
1.028192e+003, 2.771195e+002
1.028674e+003, 2.787060e+002
1.029156e+003, 2.788069e+002
1.029638e+003, 2.778784e+002
1.030120e+003, 2.777123e+002
1.030603e+003, 2.782707e+002
1.031085e+003, 2.799129e+002
1.031567e+003, 2.834391e+002
1.032049e+003, 2.860667e+002
1.032531e+003, 2.868570e+002
1.033013e+003, 2.862866e+002
1.033495e+003, 2.840829e+002
1.033977e+003, 2.810032e+002
1.034459e+003, 2.810786e+002
1.034942e+003, 2.865242e+002
1.035424e+003, 2.898120e+002
1.035906e+003, 2.898717e+002
1.036388e+003, 2.895369e+002
1.036870e+003, 2.895864e+002
1.037352e+003, 2.898320e+002
1.037834e+003, 2.900967e+002
1.038316e+003, 2.903958e+002
1.038799e+003, 2.908248e+002
1.039281e+003, 2.915477e+002
1.039763e+003, 2.920864e+002
1.040245e+003, 2.927774e+002
1.040727e+003, 2.928548e+002
1.041209e+003, 2.905379e+002
1.041691e+003, 2.886994e+002
1.042173e+003, 2.911121e+002
1.042656e+003, 2.966820e+002
1.043138e+003, 2.995383e+002
1.043620e+003, 2.977174e+002
1.044102e+003, 2.966985e+002
1.044584e+003, 2.972427e+002
1.045066e+003, 2.980851e+002
1.045548e+003, 2.989422e+002
1.046030e+003, 2.997524e+002
1.046512e+003, 3.005226e+002
1.046995e+003, 3.012136e+002
1.047477e+003, 3.015838e+002
1.047959e+003, 3.010368e+002
1.048441e+003, 3.015004e+002
1.048923e+003, 3.040031e+002
1.049405e+003, 3.066614e+002
1.049887e+003, 3.094029e+002
1.050369e+003, 3.114039e+002
1.050851e+003, 3.113787e+002
1.051334e+003, 3.098530e+002
1.051816e+003, 3.091112e+002
1.052298e+003, 3.101545e+002
1.052780e+003, 3.102523e+002
1.053262e+003, 3.068558e+002
1.053744e+003, 3.047040e+002
1.054226e+003, 3.075089e+002
1.054708e+003, 3.114361e+002
1.055191e+003, 3.125499e+002
1.055673e+003, 3.112095e+002
1.056155e+003, 3.098236e+002
1.056637e+003, 3.088582e+002
1.057119e+003, 3.080067e+002
1.057601e+003, 3.070336e+002
1.058083e+003, 3.063218e+002
1.058565e+003, 3.063023e+002
1.059047e+003, 3.064498e+002
1.059530e+003, 3.061630e+002
1.060012e+003, 3.055699e+002
1.060494e+003, 3.052265e+002
1.060976e+003, 3.053282e+002
1.061458e+003, 3.053903e+002
1.061940e+003, 3.054814e+002
1.062422e+003, 3.052024e+002
1.062904e+003, 3.037737e+002
1.063386e+003, 3.023314e+002
1.063869e+003, 3.024154e+002
1.064351e+003, 3.034075e+002
1.064833e+003, 3.032126e+002
1.065315e+003, 3.010769e+002
1.065797e+003, 2.995720e+002
1.066279e+003, 3.004959e+002
1.066761e+003, 3.014057e+002
1.067243e+003, 3.007045e+002
1.067726e+003, 2.996127e+002
1.068208e+003, 2.996854e+002
1.068690e+003, 3.003323e+002
1.069172e+003, 2.997645e+002
1.069654e+003, 2.974720e+002
1.070136e+003, 2.953503e+002
1.070618e+003, 2.939593e+002
1.071100e+003, 2.932729e+002
1.071583e+003, 2.941924e+002
1.072065e+003, 2.950250e+002
1.072547e+003, 2.938165e+002
1.073029e+003, 2.913626e+002
1.073511e+003, 2.892819e+002
1.073993e+003, 2.879677e+002
1.074475e+003, 2.879158e+002
1.074957e+003, 2.907930e+002
1.075439e+003, 2.931254e+002
1.075922e+003, 2.926642e+002
1.076404e+003, 2.913364e+002
1.076886e+003, 2.907720e+002
1.077368e+003, 2.906832e+002
1.077850e+003, 2.903481e+002
1.078332e+003, 2.896042e+002
1.078814e+003, 2.884573e+002
1.079296e+003, 2.861700e+002
1.079779e+003, 2.845263e+002
1.080261e+003, 2.851158e+002
1.080743e+003, 2.859935e+002
1.081225e+003, 2.854789e+002
1.081707e+003, 2.842009e+002
1.082189e+003, 2.831048e+002
1.082671e+003, 2.824378e+002
1.083153e+003, 2.825062e+002
1.083635e+003, 2.841414e+002
1.084118e+003, 2.851956e+002
1.084600e+003, 2.845062e+002
1.085082e+003, 2.830855e+002
1.085564e+003, 2.809195e+002
1.086046e+003, 2.789398e+002
1.086528e+003, 2.785650e+002
1.087010e+003, 2.796400e+002
1.087492e+003, 2.805291e+002
1.087974e+003, 2.806519e+002
1.088457e+003, 2.806781e+002
1.088939e+003, 2.809641e+002
1.089421e+003, 2.811591e+002
1.089903e+003, 2.806830e+002
1.090385e+003, 2.802506e+002
1.090867e+003, 2.811918e+002
1.091349e+003, 2.829674e+002
1.091831e+003, 2.833210e+002
1.092314e+003, 2.812749e+002
1.092796e+003, 2.793548e+002
1.093278e+003, 2.782223e+002
1.093760e+003, 2.777618e+002
1.094242e+003, 2.783191e+002
1.094724e+003, 2.791801e+002
1.095206e+003, 2.796332e+002
1.095688e+003, 2.798201e+002
1.096171e+003, 2.803404e+002
1.096653e+003, 2.813959e+002
1.097135e+003, 2.820860e+002
1.097617e+003, 2.816367e+002
1.098099e+003, 2.814418e+002
1.098581e+003, 2.825119e+002
1.099063e+003, 2.836158e+002
1.099545e+003, 2.833354e+002
1.100027e+003, 2.825276e+002
1.100510e+003, 2.835049e+002
1.100992e+003, 2.866544e+002
1.101474e+003, 2.872605e+002
1.101956e+003, 2.813113e+002
1.102438e+003, 2.769181e+002
1.102920e+003, 2.773265e+002
1.103402e+003, 2.787153e+002
1.103884e+003, 2.786980e+002
1.104366e+003, 2.781884e+002
1.104849e+003, 2.789007e+002
1.105331e+003, 2.808028e+002
1.105813e+003, 2.817505e+002
1.106295e+003, 2.808028e+002
1.106777e+003, 2.798687e+002
1.107259e+003, 2.789872e+002
1.107741e+003, 2.784235e+002
1.108223e+003, 2.782498e+002
1.108706e+003, 2.784850e+002
1.109188e+003, 2.798325e+002
1.109670e+003, 2.817604e+002
1.110152e+003, 2.814216e+002
1.110634e+003, 2.770544e+002
1.111116e+003, 2.740260e+002
1.111598e+003, 2.736281e+002
1.112080e+003, 2.732315e+002
1.112563e+003, 2.715481e+002
1.113045e+003, 2.701131e+002
1.113527e+003, 2.705821e+002
1.114009e+003, 2.721373e+002
1.114491e+003, 2.725034e+002
1.114973e+003, 2.712747e+002
1.115455e+003, 2.706340e+002
1.115937e+003, 2.711672e+002
1.116419e+003, 2.712500e+002
1.116901e+003, 2.701985e+002
1.117384e+003, 2.692248e+002
1.117866e+003, 2.694114e+002
1.118348e+003, 2.698024e+002
1.118830e+003, 2.685835e+002
1.119312e+003, 2.656806e+002
1.119794e+003, 2.638940e+002
1.120276e+003, 2.637162e+002
1.120758e+003, 2.633743e+002
1.121241e+003, 2.626198e+002
1.121723e+003, 2.618152e+002
1.122205e+003, 2.610604e+002
1.122687e+003, 2.604210e+002
1.123169e+003, 2.599156e+002
1.123651e+003, 2.596182e+002
1.124133e+003, 2.601505e+002
1.124615e+003, 2.619563e+002
1.125098e+003, 2.623902e+002
1.125580e+003, 2.611205e+002
1.126062e+003, 2.593745e+002
1.126544e+003, 2.573007e+002
1.127026e+003, 2.558154e+002
1.127508e+003, 2.558052e+002
1.127990e+003, 2.566866e+002
1.128472e+003, 2.569930e+002
1.128954e+003, 2.567058e+002
1.129437e+003, 2.568520e+002
1.129919e+003, 2.575330e+002
1.130401e+003, 2.567229e+002
1.130883e+003, 2.538315e+002
1.131365e+003, 2.514816e+002
1.131847e+003, 2.513115e+002
1.132329e+003, 2.520242e+002
1.132811e+003, 2.517450e+002
1.133293e+003, 2.506412e+002
1.133776e+003, 2.491872e+002
1.134258e+003, 2.475347e+002
1.134740e+003, 2.474689e+002
1.135222e+003, 2.490324e+002
1.135704e+003, 2.498329e+002
1.136186e+003, 2.489091e+002
1.136668e+003, 2.480370e+002
1.137150e+003, 2.492305e+002
1.137633e+003, 2.509071e+002
1.138115e+003, 2.489223e+002
1.138597e+003, 2.449725e+002
1.139079e+003, 2.450047e+002
1.139561e+003, 2.481601e+002
1.140043e+003, 2.494261e+002
1.140525e+003, 2.477555e+002
1.141007e+003, 2.455861e+002
1.141490e+003, 2.443911e+002
1.141972e+003, 2.439834e+002
1.142454e+003, 2.443558e+002
1.142936e+003, 2.452120e+002
1.143418e+003, 2.465346e+002
1.143900e+003, 2.477690e+002
1.144382e+003, 2.476313e+002
1.144864e+003, 2.462758e+002
1.145346e+003, 2.446143e+002
1.145828e+003, 2.430506e+002
1.146311e+003, 2.424980e+002
1.146793e+003, 2.443934e+002
1.147275e+003, 2.467816e+002
1.147757e+003, 2.485204e+002
1.148239e+003, 2.491964e+002
1.148721e+003, 2.473422e+002
1.149203e+003, 2.444073e+002
1.149685e+003, 2.433555e+002
1.150168e+003, 2.445409e+002
1.150650e+003, 2.456076e+002
1.151132e+003, 2.455289e+002
1.151614e+003, 2.451154e+002
1.152096e+003, 2.446821e+002
1.152578e+003, 2.441671e+002
1.153060e+003, 2.433769e+002
1.153542e+003, 2.425877e+002
1.154025e+003, 2.420995e+002
1.154507e+003, 2.419019e+002
1.154989e+003, 2.418402e+002
1.155471e+003, 2.418764e+002
1.155953e+003, 2.420858e+002
1.156435e+003, 2.426306e+002
1.156917e+003, 2.431562e+002
1.157399e+003, 2.436524e+002
1.157881e+003, 2.439904e+002
1.158364e+003, 2.440689e+002
1.158846e+003, 2.439445e+002
1.159328e+003, 2.435666e+002
1.159810e+003, 2.429248e+002
1.160292e+003, 2.429098e+002
1.160774e+003, 2.442674e+002
1.161256e+003, 2.448945e+002
1.161738e+003, 2.442989e+002
1.162220e+003, 2.436160e+002
1.162703e+003, 2.431334e+002
1.163185e+003, 2.429194e+002
1.163667e+003, 2.431575e+002
1.164149e+003, 2.436479e+002
1.164631e+003, 2.436721e+002
1.165113e+003, 2.430936e+002
1.165595e+003, 2.429688e+002
1.166077e+003, 2.434972e+002
1.166560e+003, 2.435649e+002
1.167042e+003, 2.428794e+002
1.167524e+003, 2.418835e+002
1.168006e+003, 2.407054e+002
1.168488e+003, 2.399077e+002
1.168970e+003, 2.404511e+002
1.169452e+003, 2.420471e+002
1.169934e+003, 2.432996e+002
1.170417e+003, 2.442127e+002
1.170899e+003, 2.447172e+002
1.171381e+003, 2.448435e+002
1.171863e+003, 2.452942e+002
1.172345e+003, 2.462798e+002
1.172827e+003, 2.469738e+002
1.173309e+003, 2.467350e+002
1.173791e+003, 2.456750e+002
1.174273e+003, 2.432850e+002
1.174755e+003, 2.405365e+002
1.175238e+003, 2.398685e+002
1.175720e+003, 2.408094e+002
1.176202e+003, 2.421649e+002
1.176684e+003, 2.435299e+002
1.177166e+003, 2.444357e+002
1.177648e+003, 2.446884e+002
1.178130e+003, 2.444886e+002
1.178612e+003, 2.438507e+002
1.179095e+003, 2.430311e+002
1.179577e+003, 2.418412e+002
1.180059e+003, 2.409678e+002
1.180541e+003, 2.417294e+002
1.181023e+003, 2.432774e+002
1.181505e+003, 2.437626e+002
1.181987e+003, 2.430452e+002
1.182469e+003, 2.426207e+002
1.182952e+003, 2.432720e+002
1.183434e+003, 2.437306e+002
1.183916e+003, 2.432109e+002
1.184398e+003, 2.426055e+002
1.184880e+003, 2.419308e+002
1.185362e+003, 2.418121e+002
1.185844e+003, 2.438991e+002
1.186326e+003, 2.467201e+002
1.186808e+003, 2.461888e+002
1.187291e+003, 2.412664e+002
1.187773e+003, 2.388677e+002
1.188255e+003, 2.421456e+002
1.188737e+003, 2.440622e+002
1.189219e+003, 2.426447e+002
1.189701e+003, 2.414948e+002
1.190183e+003, 2.424758e+002
1.190665e+003, 2.440470e+002
1.191147e+003, 2.445919e+002
1.191630e+003, 2.443098e+002
1.192112e+003, 2.440718e+002
1.192594e+003, 2.440216e+002
1.193076e+003, 2.430638e+002
1.193558e+003, 2.407798e+002
1.194040e+003, 2.399507e+002
1.194522e+003, 2.414664e+002
1.195004e+003, 2.429062e+002
1.195487e+003, 2.427993e+002
1.195969e+003, 2.419658e+002
1.196451e+003, 2.414500e+002
1.196933e+003, 2.412717e+002
1.197415e+003, 2.417136e+002
1.197897e+003, 2.425936e+002
1.198379e+003, 2.427884e+002
1.198861e+003, 2.423123e+002
1.199344e+003, 2.418102e+002
1.199826e+003, 2.415008e+002
1.200308e+003, 2.414619e+002
1.200790e+003, 2.417712e+002
1.201272e+003, 2.422069e+002
1.201754e+003, 2.426396e+002
1.202236e+003, 2.429205e+002
1.202718e+003, 2.426671e+002
1.203200e+003, 2.422060e+002
1.203682e+003, 2.421820e+002
1.204165e+003, 2.424607e+002
1.204647e+003, 2.424995e+002
1.205129e+003, 2.421383e+002
1.205611e+003, 2.414801e+002
1.206093e+003, 2.400926e+002
1.206575e+003, 2.392348e+002
1.207057e+003, 2.398099e+002
1.207539e+003, 2.408530e+002
1.208022e+003, 2.423482e+002
1.208504e+003, 2.434633e+002
1.208986e+003, 2.428710e+002
1.209468e+003, 2.410886e+002
1.209950e+003, 2.402353e+002
1.210432e+003, 2.409407e+002
1.210914e+003, 2.408978e+002
1.211396e+003, 2.387469e+002
1.211879e+003, 2.377169e+002
1.212361e+003, 2.386272e+002
1.212843e+003, 2.402301e+002
1.213325e+003, 2.425303e+002
1.213807e+003, 2.443223e+002
1.214289e+003, 2.440150e+002
1.214771e+003, 2.420088e+002
1.215253e+003, 2.399722e+002
1.215735e+003, 2.377398e+002
1.216218e+003, 2.374756e+002
1.216700e+003, 2.394388e+002
1.217182e+003, 2.404087e+002
1.217664e+003, 2.396091e+002
1.218146e+003, 2.383092e+002
1.218628e+003, 2.371857e+002
1.219110e+003, 2.368212e+002
1.219592e+003, 2.383725e+002
1.220074e+003, 2.407567e+002
1.220557e+003, 2.413335e+002
1.221039e+003, 2.406609e+002
1.221521e+003, 2.400293e+002
1.222003e+003, 2.395706e+002
1.222485e+003, 2.393757e+002
1.222967e+003, 2.393459e+002
1.223449e+003, 2.387908e+002
1.223931e+003, 2.371940e+002
1.224414e+003, 2.359319e+002
1.224896e+003, 2.362056e+002
1.225378e+003, 2.371170e+002
1.225860e+003, 2.383438e+002
1.226342e+003, 2.394750e+002
1.226824e+003, 2.403214e+002
1.227306e+003, 2.406661e+002
1.227788e+003, 2.399223e+002
1.228271e+003, 2.381315e+002
1.228753e+003, 2.368594e+002
1.229235e+003, 2.370828e+002
1.229717e+003, 2.366631e+002
1.230199e+003, 2.337810e+002
1.230681e+003, 2.323739e+002
1.231163e+003, 2.347821e+002
1.231645e+003, 2.376382e+002
1.232127e+003, 2.384793e+002
1.232609e+003, 2.381256e+002
1.233092e+003, 2.381590e+002
1.233574e+003, 2.385594e+002
1.234056e+003, 2.385180e+002
1.234538e+003, 2.379624e+002
1.235020e+003, 2.375313e+002
1.235502e+003, 2.372867e+002
1.235984e+003, 2.370999e+002
1.236466e+003, 2.369314e+002
1.236949e+003, 2.366274e+002
1.237431e+003, 2.360396e+002
1.237913e+003, 2.354429e+002
1.238395e+003, 2.348923e+002
1.238877e+003, 2.348744e+002
1.239359e+003, 2.377566e+002
1.239841e+003, 2.416687e+002
1.240323e+003, 2.413923e+002
1.240806e+003, 2.378813e+002
1.241288e+003, 2.362802e+002
1.241770e+003, 2.377809e+002
1.242252e+003, 2.386696e+002
1.242734e+003, 2.364156e+002
1.243216e+003, 2.342938e+002
1.243698e+003, 2.350285e+002
1.244180e+003, 2.359374e+002
1.244662e+003, 2.347617e+002
1.245145e+003, 2.331570e+002
1.245627e+003, 2.329478e+002
1.246109e+003, 2.337056e+002
1.246591e+003, 2.343588e+002
1.247073e+003, 2.348351e+002
1.247555e+003, 2.343843e+002
1.248037e+003, 2.315961e+002
1.248519e+003, 2.305931e+002
1.249001e+003, 2.327367e+002
1.249484e+003, 2.341325e+002
1.249966e+003, 2.330959e+002
1.250448e+003, 2.320258e+002
1.250930e+003, 2.329690e+002
1.251412e+003, 2.347181e+002
1.251894e+003, 2.347844e+002
1.252376e+003, 2.335037e+002
1.252858e+003, 2.336930e+002
1.253341e+003, 2.350826e+002
1.253823e+003, 2.348862e+002
1.254305e+003, 2.331700e+002
1.254787e+003, 2.326698e+002
1.255269e+003, 2.341058e+002
1.255751e+003, 2.356956e+002
1.256233e+003, 2.362980e+002
1.256715e+003, 2.363576e+002
1.257198e+003, 2.361416e+002
1.257680e+003, 2.358472e+002
1.258162e+003, 2.359918e+002
1.258644e+003, 2.359684e+002
1.259126e+003, 2.343072e+002
1.259608e+003, 2.321143e+002
1.260090e+003, 2.319193e+002
1.260572e+003, 2.339395e+002
1.261054e+003, 2.359732e+002
1.261536e+003, 2.379386e+002
1.262019e+003, 2.387625e+002
1.262501e+003, 2.375966e+002
1.262983e+003, 2.361345e+002
1.263465e+003, 2.345046e+002
1.263947e+003, 2.332242e+002
1.264429e+003, 2.326840e+002
1.264911e+003, 2.326068e+002
1.265393e+003, 2.326506e+002
1.265876e+003, 2.327576e+002
1.266358e+003, 2.324207e+002
1.266840e+003, 2.315869e+002
1.267322e+003, 2.314675e+002
1.267804e+003, 2.321064e+002
1.268286e+003, 2.324417e+002
1.268768e+003, 2.322528e+002
1.269250e+003, 2.322949e+002
1.269733e+003, 2.329920e+002
1.270215e+003, 2.338121e+002
1.270697e+003, 2.342155e+002
1.271179e+003, 2.343689e+002
1.271661e+003, 2.345067e+002
1.272143e+003, 2.345478e+002
1.272625e+003, 2.343151e+002
1.273107e+003, 2.339289e+002
1.273589e+003, 2.335975e+002
1.274072e+003, 2.333397e+002
1.274554e+003, 2.330415e+002
1.275036e+003, 2.326389e+002
1.275518e+003, 2.324422e+002
1.276000e+003, 2.329046e+002
1.276482e+003, 2.330374e+002
1.276964e+003, 2.320911e+002
1.277446e+003, 2.314285e+002
1.277929e+003, 2.319616e+002
1.278411e+003, 2.326195e+002
1.278893e+003, 2.322869e+002
1.279375e+003, 2.313931e+002
1.279857e+003, 2.311135e+002
1.280339e+003, 2.314626e+002
1.280821e+003, 2.317588e+002
1.281303e+003, 2.320329e+002
1.281786e+003, 2.322417e+002
1.282268e+003, 2.323703e+002
##END=



