##NAMES=Olsacherite
##RRUFFID=R140741
##IDEAL CHEMISTRY=Pb^2+^_2_(Se^6+^O_4_)(S^6+^O_4_)
##LOCALITY=Virgen De Surumi mine, Pakajake Canyon, Chayanta Province, Potos√≠ Department, Bolivia
##OWNER=RRUFF
##SOURCE=Rock Currier
##DESCRIPTION=Sprays of colorless prismatic crystals. This sample was originally labeled as mandarinoite.
##STATUS=The identification of this mineral has been confirmed by X-ray diffraction.
##URL=rruff.info/R140741
8.758203e+001, 1.619406e+003
8.806415e+001, 1.616661e+003
8.854626e+001, 1.616273e+003
8.902838e+001, 1.614455e+003
8.951050e+001, 1.617608e+003
8.999261e+001, 1.628541e+003
9.047473e+001, 1.647189e+003
9.095685e+001, 1.671722e+003
9.143896e+001, 1.701265e+003
9.192108e+001, 1.736300e+003
9.240320e+001, 1.773905e+003
9.288531e+001, 1.797616e+003
9.336743e+001, 1.788765e+003
9.384955e+001, 1.747385e+003
9.433167e+001, 1.698550e+003
9.481378e+001, 1.643649e+003
9.529590e+001, 1.595213e+003
9.577802e+001, 1.552679e+003
9.626013e+001, 1.514457e+003
9.674225e+001, 1.478872e+003
9.722437e+001, 1.445391e+003
9.770648e+001, 1.415767e+003
9.818860e+001, 1.389621e+003
9.867072e+001, 1.366959e+003
9.915283e+001, 1.348069e+003
9.963495e+001, 1.332594e+003
1.001171e+002, 1.319423e+003
1.005992e+002, 1.307528e+003
1.010813e+002, 1.297140e+003
1.015634e+002, 1.286758e+003
1.020455e+002, 1.274455e+003
1.025277e+002, 1.262292e+003
1.030098e+002, 1.251774e+003
1.034919e+002, 1.243429e+003
1.039740e+002, 1.236859e+003
1.044561e+002, 1.231135e+003
1.049382e+002, 1.228635e+003
1.054204e+002, 1.224022e+003
1.059025e+002, 1.215416e+003
1.063846e+002, 1.204286e+003
1.068667e+002, 1.193016e+003
1.073488e+002, 1.182830e+003
1.078309e+002, 1.173828e+003
1.083131e+002, 1.166373e+003
1.087952e+002, 1.161206e+003
1.092773e+002, 1.156581e+003
1.097594e+002, 1.151959e+003
1.102415e+002, 1.147245e+003
1.107236e+002, 1.141784e+003
1.112058e+002, 1.134853e+003
1.116879e+002, 1.126680e+003
1.121700e+002, 1.118022e+003
1.126521e+002, 1.108456e+003
1.131342e+002, 1.098644e+003
1.136163e+002, 1.089775e+003
1.140985e+002, 1.082233e+003
1.145806e+002, 1.075076e+003
1.150627e+002, 1.067144e+003
1.155448e+002, 1.058976e+003
1.160269e+002, 1.051846e+003
1.165090e+002, 1.047190e+003
1.169912e+002, 1.044953e+003
1.174733e+002, 1.041856e+003
1.179554e+002, 1.036164e+003
1.184375e+002, 1.030965e+003
1.189196e+002, 1.028022e+003
1.194017e+002, 1.027029e+003
1.198839e+002, 1.026242e+003
1.203660e+002, 1.023471e+003
1.208481e+002, 1.017529e+003
1.213302e+002, 1.012444e+003
1.218123e+002, 1.008065e+003
1.222944e+002, 1.004375e+003
1.227766e+002, 1.001638e+003
1.232587e+002, 9.998246e+002
1.237408e+002, 9.982805e+002
1.242229e+002, 9.957876e+002
1.247050e+002, 9.909604e+002
1.251871e+002, 9.869271e+002
1.256693e+002, 9.845507e+002
1.261514e+002, 9.827723e+002
1.266335e+002, 9.803489e+002
1.271156e+002, 9.767588e+002
1.275977e+002, 9.721246e+002
1.280798e+002, 9.665280e+002
1.285620e+002, 9.584641e+002
1.290441e+002, 9.518400e+002
1.295262e+002, 9.493374e+002
1.300083e+002, 9.500212e+002
1.304904e+002, 9.500006e+002
1.309725e+002, 9.473094e+002
1.314547e+002, 9.425013e+002
1.319368e+002, 9.371766e+002
1.324189e+002, 9.309738e+002
1.329010e+002, 9.248055e+002
1.333831e+002, 9.195682e+002
1.338652e+002, 9.153485e+002
1.343474e+002, 9.116629e+002
1.348295e+002, 9.093249e+002
1.353116e+002, 9.071022e+002
1.357937e+002, 9.033483e+002
1.362758e+002, 8.967645e+002
1.367579e+002, 8.887341e+002
1.372401e+002, 8.831174e+002
1.377222e+002, 8.818276e+002
1.382043e+002, 8.800836e+002
1.386864e+002, 8.760150e+002
1.391685e+002, 8.705546e+002
1.396507e+002, 8.651981e+002
1.401328e+002, 8.611867e+002
1.406149e+002, 8.584030e+002
1.410970e+002, 8.537256e+002
1.415791e+002, 8.440964e+002
1.420612e+002, 8.353605e+002
1.425434e+002, 8.295573e+002
1.430255e+002, 8.261116e+002
1.435076e+002, 8.231437e+002
1.439897e+002, 8.189059e+002
1.444718e+002, 8.130548e+002
1.449539e+002, 8.078878e+002
1.454361e+002, 8.038319e+002
1.459182e+002, 7.999359e+002
1.464003e+002, 7.958759e+002
1.468824e+002, 7.915316e+002
1.473645e+002, 7.866797e+002
1.478466e+002, 7.809581e+002
1.483288e+002, 7.739091e+002
1.488109e+002, 7.674829e+002
1.492930e+002, 7.612811e+002
1.497751e+002, 7.558717e+002
1.502572e+002, 7.524479e+002
1.507393e+002, 7.515122e+002
1.512215e+002, 7.509326e+002
1.517036e+002, 7.472115e+002
1.521857e+002, 7.405421e+002
1.526678e+002, 7.340802e+002
1.531499e+002, 7.289485e+002
1.536320e+002, 7.247807e+002
1.541142e+002, 7.206655e+002
1.545963e+002, 7.162703e+002
1.550784e+002, 7.121270e+002
1.555605e+002, 7.089918e+002
1.560426e+002, 7.068795e+002
1.565247e+002, 7.044155e+002
1.570069e+002, 7.004634e+002
1.574890e+002, 6.950536e+002
1.579711e+002, 6.895836e+002
1.584532e+002, 6.829767e+002
1.589353e+002, 6.775519e+002
1.594174e+002, 6.756050e+002
1.598996e+002, 6.773320e+002
1.603817e+002, 6.797936e+002
1.608638e+002, 6.795227e+002
1.613459e+002, 6.759247e+002
1.618280e+002, 6.714742e+002
1.623102e+002, 6.653564e+002
1.627923e+002, 6.593149e+002
1.632744e+002, 6.547574e+002
1.637565e+002, 6.520187e+002
1.642386e+002, 6.501695e+002
1.647207e+002, 6.473832e+002
1.652029e+002, 6.429229e+002
1.656850e+002, 6.386841e+002
1.661671e+002, 6.339689e+002
1.666492e+002, 6.298972e+002
1.671313e+002, 6.279943e+002
1.676134e+002, 6.289099e+002
1.680956e+002, 6.312578e+002
1.685777e+002, 6.309821e+002
1.690598e+002, 6.242880e+002
1.695419e+002, 6.192014e+002
1.700240e+002, 6.177197e+002
1.705061e+002, 6.178917e+002
1.709883e+002, 6.167437e+002
1.714704e+002, 6.126347e+002
1.719525e+002, 6.065276e+002
1.724346e+002, 6.025991e+002
1.729167e+002, 6.021255e+002
1.733988e+002, 6.018317e+002
1.738810e+002, 6.010613e+002
1.743631e+002, 5.997755e+002
1.748452e+002, 5.977444e+002
1.753273e+002, 5.945865e+002
1.758094e+002, 5.907550e+002
1.762915e+002, 5.879350e+002
1.767737e+002, 5.864908e+002
1.772558e+002, 5.855364e+002
1.777379e+002, 5.847619e+002
1.782200e+002, 5.841339e+002
1.787021e+002, 5.832388e+002
1.791842e+002, 5.818022e+002
1.796664e+002, 5.799196e+002
1.801485e+002, 5.778315e+002
1.806306e+002, 5.755446e+002
1.811127e+002, 5.730709e+002
1.815948e+002, 5.701943e+002
1.820769e+002, 5.667295e+002
1.825591e+002, 5.639027e+002
1.830412e+002, 5.630297e+002
1.835233e+002, 5.629663e+002
1.840054e+002, 5.625028e+002
1.844875e+002, 5.610452e+002
1.849696e+002, 5.592278e+002
1.854518e+002, 5.584048e+002
1.859339e+002, 5.592579e+002
1.864160e+002, 5.595350e+002
1.868981e+002, 5.583089e+002
1.873802e+002, 5.561700e+002
1.878623e+002, 5.536855e+002
1.883445e+002, 5.510690e+002
1.888266e+002, 5.483835e+002
1.893087e+002, 5.458735e+002
1.897908e+002, 5.434608e+002
1.902729e+002, 5.413563e+002
1.907550e+002, 5.396412e+002
1.912372e+002, 5.382204e+002
1.917193e+002, 5.369279e+002
1.922014e+002, 5.356237e+002
1.926835e+002, 5.344061e+002
1.931656e+002, 5.339687e+002
1.936477e+002, 5.371688e+002
1.941299e+002, 5.381555e+002
1.946120e+002, 5.339679e+002
1.950941e+002, 5.270524e+002
1.955762e+002, 5.214674e+002
1.960583e+002, 5.200356e+002
1.965404e+002, 5.224851e+002
1.970226e+002, 5.240049e+002
1.975047e+002, 5.240926e+002
1.979868e+002, 5.238538e+002
1.984689e+002, 5.235121e+002
1.989510e+002, 5.230675e+002
1.994331e+002, 5.223959e+002
1.999153e+002, 5.213419e+002
2.003974e+002, 5.199330e+002
2.008795e+002, 5.191808e+002
2.013616e+002, 5.195765e+002
2.018437e+002, 5.199938e+002
2.023258e+002, 5.205209e+002
2.028080e+002, 5.208173e+002
2.032901e+002, 5.196381e+002
2.037722e+002, 5.155225e+002
2.042543e+002, 5.088821e+002
2.047364e+002, 5.049841e+002
2.052185e+002, 5.062505e+002
2.057007e+002, 5.079977e+002
2.061828e+002, 5.067655e+002
2.066649e+002, 5.028132e+002
2.071470e+002, 4.996227e+002
2.076291e+002, 5.003846e+002
2.081112e+002, 5.040326e+002
2.085934e+002, 5.051263e+002
2.090755e+002, 5.012016e+002
2.095576e+002, 4.961175e+002
2.100397e+002, 4.932233e+002
2.105218e+002, 4.926029e+002
2.110039e+002, 4.926494e+002
2.114861e+002, 4.927847e+002
2.119682e+002, 4.927800e+002
2.124503e+002, 4.921427e+002
2.129324e+002, 4.905326e+002
2.134145e+002, 4.884190e+002
2.138967e+002, 4.862147e+002
2.143788e+002, 4.838216e+002
2.148609e+002, 4.817770e+002
2.153430e+002, 4.804832e+002
2.158251e+002, 4.796982e+002
2.163072e+002, 4.793040e+002
2.167894e+002, 4.796623e+002
2.172715e+002, 4.800173e+002
2.177536e+002, 4.788967e+002
2.182357e+002, 4.757945e+002
2.187178e+002, 4.725941e+002
2.191999e+002, 4.699177e+002
2.196821e+002, 4.676466e+002
2.201642e+002, 4.657542e+002
2.206463e+002, 4.643266e+002
2.211284e+002, 4.631344e+002
2.216105e+002, 4.615793e+002
2.220926e+002, 4.593475e+002
2.225748e+002, 4.574132e+002
2.230569e+002, 4.564147e+002
2.235390e+002, 4.557196e+002
2.240211e+002, 4.546056e+002
2.245032e+002, 4.527126e+002
2.249853e+002, 4.502851e+002
2.254675e+002, 4.478250e+002
2.259496e+002, 4.446690e+002
2.264317e+002, 4.427157e+002
2.269138e+002, 4.435847e+002
2.273959e+002, 4.452476e+002
2.278780e+002, 4.451661e+002
2.283602e+002, 4.419753e+002
2.288423e+002, 4.370231e+002
2.293244e+002, 4.348267e+002
2.298065e+002, 4.388029e+002
2.302886e+002, 4.408879e+002
2.307707e+002, 4.387945e+002
2.312529e+002, 4.348320e+002
2.317350e+002, 4.316161e+002
2.322171e+002, 4.304066e+002
2.326992e+002, 4.305854e+002
2.331813e+002, 4.301806e+002
2.336634e+002, 4.287664e+002
2.341456e+002, 4.271835e+002
2.346277e+002, 4.253312e+002
2.351098e+002, 4.234001e+002
2.355919e+002, 4.215893e+002
2.360740e+002, 4.199907e+002
2.365561e+002, 4.185713e+002
2.370383e+002, 4.172306e+002
2.375204e+002, 4.161034e+002
2.380025e+002, 4.149182e+002
2.384846e+002, 4.138793e+002
2.389667e+002, 4.127092e+002
2.394488e+002, 4.110181e+002
2.399310e+002, 4.086263e+002
2.404131e+002, 4.057869e+002
2.408952e+002, 4.031133e+002
2.413773e+002, 4.001638e+002
2.418594e+002, 3.979787e+002
2.423415e+002, 3.971268e+002
2.428237e+002, 3.969584e+002
2.433058e+002, 3.968194e+002
2.437879e+002, 3.965000e+002
2.442700e+002, 3.957817e+002
2.447521e+002, 3.940887e+002
2.452342e+002, 3.910380e+002
2.457164e+002, 3.878580e+002
2.461985e+002, 3.840074e+002
2.466806e+002, 3.803244e+002
2.471627e+002, 3.783848e+002
2.476448e+002, 3.788959e+002
2.481269e+002, 3.801096e+002
2.486091e+002, 3.786474e+002
2.490912e+002, 3.736887e+002
2.495733e+002, 3.694411e+002
2.500554e+002, 3.670712e+002
2.505375e+002, 3.657855e+002
2.510196e+002, 3.644730e+002
2.515018e+002, 3.628595e+002
2.519839e+002, 3.610973e+002
2.524660e+002, 3.591898e+002
2.529481e+002, 3.570108e+002
2.534302e+002, 3.556926e+002
2.539123e+002, 3.564661e+002
2.543945e+002, 3.580134e+002
2.548766e+002, 3.583444e+002
2.553587e+002, 3.570019e+002
2.558408e+002, 3.546140e+002
2.563229e+002, 3.511402e+002
2.568051e+002, 3.467496e+002
2.572872e+002, 3.436498e+002
2.577693e+002, 3.430516e+002
2.582514e+002, 3.439509e+002
2.587335e+002, 3.448798e+002
2.592156e+002, 3.457202e+002
2.596978e+002, 3.462903e+002
2.601799e+002, 3.465365e+002
2.606620e+002, 3.464312e+002
2.611441e+002, 3.455518e+002
2.616262e+002, 3.428851e+002
2.621083e+002, 3.396322e+002
2.625905e+002, 3.378829e+002
2.630726e+002, 3.380877e+002
2.635547e+002, 3.386443e+002
2.640368e+002, 3.384021e+002
2.645189e+002, 3.376036e+002
2.650010e+002, 3.366386e+002
2.654832e+002, 3.357173e+002
2.659653e+002, 3.346741e+002
2.664474e+002, 3.331086e+002
2.669295e+002, 3.308449e+002
2.674116e+002, 3.287411e+002
2.678937e+002, 3.275741e+002
2.683759e+002, 3.268666e+002
2.688580e+002, 3.259510e+002
2.693401e+002, 3.244565e+002
2.698222e+002, 3.228210e+002
2.703043e+002, 3.217530e+002
2.707864e+002, 3.213806e+002
2.712686e+002, 3.210245e+002
2.717507e+002, 3.204255e+002
2.722328e+002, 3.196328e+002
2.727149e+002, 3.185725e+002
2.731970e+002, 3.170431e+002
2.736791e+002, 3.156115e+002
2.741613e+002, 3.153549e+002
2.746434e+002, 3.166328e+002
2.751255e+002, 3.172076e+002
2.756076e+002, 3.154892e+002
2.760897e+002, 3.130398e+002
2.765718e+002, 3.108902e+002
2.770540e+002, 3.092240e+002
2.775361e+002, 3.081594e+002
2.780182e+002, 3.079288e+002
2.785003e+002, 3.086189e+002
2.789824e+002, 3.095724e+002
2.794645e+002, 3.114016e+002
2.799467e+002, 3.129215e+002
2.804288e+002, 3.131375e+002
2.809109e+002, 3.119200e+002
2.813930e+002, 3.102391e+002
2.818751e+002, 3.089769e+002
2.823572e+002, 3.081481e+002
2.828394e+002, 3.075849e+002
2.833215e+002, 3.075024e+002
2.838036e+002, 3.075077e+002
2.842857e+002, 3.072863e+002
2.847678e+002, 3.068763e+002
2.852499e+002, 3.066369e+002
2.857321e+002, 3.070937e+002
2.862142e+002, 3.082723e+002
2.866963e+002, 3.088960e+002
2.871784e+002, 3.086229e+002
2.876605e+002, 3.079960e+002
2.881426e+002, 3.070833e+002
2.886248e+002, 3.060067e+002
2.891069e+002, 3.050595e+002
2.895890e+002, 3.043456e+002
2.900711e+002, 3.038908e+002
2.905532e+002, 3.041479e+002
2.910353e+002, 3.058849e+002
2.915175e+002, 3.073998e+002
2.919996e+002, 3.080762e+002
2.924817e+002, 3.080695e+002
2.929638e+002, 3.076990e+002
2.934459e+002, 3.071520e+002
2.939280e+002, 3.063973e+002
2.944102e+002, 3.051971e+002
2.948923e+002, 3.027869e+002
2.953744e+002, 3.011933e+002
2.958565e+002, 3.017649e+002
2.963386e+002, 3.031775e+002
2.968207e+002, 3.035711e+002
2.973029e+002, 3.018797e+002
2.977850e+002, 2.991660e+002
2.982671e+002, 2.982033e+002
2.987492e+002, 3.000214e+002
2.992313e+002, 3.015753e+002
2.997134e+002, 3.021744e+002
3.001956e+002, 3.022357e+002
3.006777e+002, 3.020130e+002
3.011598e+002, 3.015870e+002
3.016419e+002, 3.011617e+002
3.021240e+002, 3.011954e+002
3.026061e+002, 3.020281e+002
3.030883e+002, 3.023355e+002
3.035704e+002, 3.016793e+002
3.040525e+002, 3.006324e+002
3.045346e+002, 2.992733e+002
3.050167e+002, 2.977213e+002
3.054988e+002, 2.965527e+002
3.059810e+002, 2.967513e+002
3.064631e+002, 2.987863e+002
3.069452e+002, 2.999985e+002
3.074273e+002, 2.990181e+002
3.079094e+002, 2.981343e+002
3.083915e+002, 2.987041e+002
3.088737e+002, 3.005282e+002
3.093558e+002, 3.023281e+002
3.098379e+002, 3.028560e+002
3.103200e+002, 3.020480e+002
3.108021e+002, 3.012716e+002
3.112842e+002, 3.000114e+002
3.117664e+002, 2.993526e+002
3.122485e+002, 3.001054e+002
3.127306e+002, 3.017621e+002
3.132127e+002, 3.032606e+002
3.136948e+002, 3.039155e+002
3.141769e+002, 3.037934e+002
3.146591e+002, 3.032238e+002
3.151412e+002, 3.015671e+002
3.156233e+002, 3.003713e+002
3.161054e+002, 3.001849e+002
3.165875e+002, 3.006424e+002
3.170696e+002, 3.013018e+002
3.175518e+002, 3.019825e+002
3.180339e+002, 3.026494e+002
3.185160e+002, 3.032620e+002
3.189981e+002, 3.040440e+002
3.194802e+002, 3.042780e+002
3.199623e+002, 3.030990e+002
3.204445e+002, 3.017713e+002
3.209266e+002, 3.016679e+002
3.214087e+002, 3.031916e+002
3.218908e+002, 3.051360e+002
3.223729e+002, 3.053988e+002
3.228550e+002, 3.031829e+002
3.233372e+002, 3.021278e+002
3.238193e+002, 3.039797e+002
3.243014e+002, 3.061815e+002
3.247835e+002, 3.071988e+002
3.252656e+002, 3.069176e+002
3.257477e+002, 3.063314e+002
3.262299e+002, 3.065381e+002
3.267120e+002, 3.076519e+002
3.271941e+002, 3.082975e+002
3.276762e+002, 3.078059e+002
3.281583e+002, 3.074246e+002
3.286404e+002, 3.078203e+002
3.291226e+002, 3.087960e+002
3.296047e+002, 3.097295e+002
3.300868e+002, 3.101521e+002
3.305689e+002, 3.101426e+002
3.310510e+002, 3.102147e+002
3.315331e+002, 3.102821e+002
3.320153e+002, 3.105900e+002
3.324974e+002, 3.114391e+002
3.329795e+002, 3.125031e+002
3.334616e+002, 3.133279e+002
3.339437e+002, 3.137129e+002
3.344258e+002, 3.137265e+002
3.349080e+002, 3.132858e+002
3.353901e+002, 3.118248e+002
3.358722e+002, 3.114377e+002
3.363543e+002, 3.138580e+002
3.368365e+002, 3.169736e+002
3.373186e+002, 3.187404e+002
3.378007e+002, 3.185320e+002
3.382828e+002, 3.180047e+002
3.387649e+002, 3.195286e+002
3.392470e+002, 3.234753e+002
3.397292e+002, 3.266157e+002
3.402113e+002, 3.273582e+002
3.406934e+002, 3.278262e+002
3.411755e+002, 3.295507e+002
3.416576e+002, 3.324923e+002
3.421397e+002, 3.353169e+002
3.426219e+002, 3.365804e+002
3.431040e+002, 3.364885e+002
3.435861e+002, 3.372888e+002
3.440682e+002, 3.393079e+002
3.445503e+002, 3.420604e+002
3.450324e+002, 3.455344e+002
3.455146e+002, 3.494246e+002
3.459967e+002, 3.529549e+002
3.464788e+002, 3.553531e+002
3.469609e+002, 3.572171e+002
3.474430e+002, 3.601918e+002
3.479251e+002, 3.648087e+002
3.484073e+002, 3.690662e+002
3.488894e+002, 3.714435e+002
3.493715e+002, 3.730770e+002
3.498536e+002, 3.753056e+002
3.503357e+002, 3.785308e+002
3.508178e+002, 3.824096e+002
3.513000e+002, 3.867664e+002
3.517821e+002, 3.916429e+002
3.522642e+002, 3.961906e+002
3.527463e+002, 3.998184e+002
3.532284e+002, 4.032489e+002
3.537105e+002, 4.072318e+002
3.541927e+002, 4.118436e+002
3.546748e+002, 4.166884e+002
3.551569e+002, 4.218863e+002
3.556390e+002, 4.272102e+002
3.561211e+002, 4.315054e+002
3.566032e+002, 4.340286e+002
3.570854e+002, 4.364106e+002
3.575675e+002, 4.404517e+002
3.580496e+002, 4.458239e+002
3.585317e+002, 4.508214e+002
3.590138e+002, 4.539264e+002
3.594959e+002, 4.565716e+002
3.599781e+002, 4.617065e+002
3.604602e+002, 4.699197e+002
3.609423e+002, 4.775263e+002
3.614244e+002, 4.814549e+002
3.619065e+002, 4.827826e+002
3.623886e+002, 4.842185e+002
3.628708e+002, 4.858308e+002
3.633529e+002, 4.879171e+002
3.638350e+002, 4.909850e+002
3.643171e+002, 4.948791e+002
3.647992e+002, 4.986150e+002
3.652813e+002, 5.017862e+002
3.657635e+002, 5.044819e+002
3.662456e+002, 5.069403e+002
3.667277e+002, 5.091135e+002
3.672098e+002, 5.111701e+002
3.676919e+002, 5.135223e+002
3.681740e+002, 5.157430e+002
3.686562e+002, 5.168062e+002
3.691383e+002, 5.163038e+002
3.696204e+002, 5.153913e+002
3.701025e+002, 5.154547e+002
3.705846e+002, 5.165297e+002
3.710667e+002, 5.178795e+002
3.715489e+002, 5.203041e+002
3.720310e+002, 5.223928e+002
3.725131e+002, 5.225715e+002
3.729952e+002, 5.208846e+002
3.734773e+002, 5.187996e+002
3.739594e+002, 5.172064e+002
3.744416e+002, 5.161730e+002
3.749237e+002, 5.160630e+002
3.754058e+002, 5.185699e+002
3.758879e+002, 5.201086e+002
3.763700e+002, 5.181746e+002
3.768521e+002, 5.142841e+002
3.773343e+002, 5.117057e+002
3.778164e+002, 5.119728e+002
3.782985e+002, 5.140170e+002
3.787806e+002, 5.154510e+002
3.792627e+002, 5.170294e+002
3.797448e+002, 5.166454e+002
3.802270e+002, 5.120873e+002
3.807091e+002, 5.066452e+002
3.811912e+002, 5.036520e+002
3.816733e+002, 5.036265e+002
3.821554e+002, 5.045534e+002
3.826375e+002, 5.041855e+002
3.831197e+002, 5.022214e+002
3.836018e+002, 5.003966e+002
3.840839e+002, 4.994211e+002
3.845660e+002, 4.978900e+002
3.850481e+002, 4.945875e+002
3.855302e+002, 4.901650e+002
3.860124e+002, 4.862896e+002
3.864945e+002, 4.840914e+002
3.869766e+002, 4.832397e+002
3.874587e+002, 4.819544e+002
3.879408e+002, 4.803240e+002
3.884229e+002, 4.780640e+002
3.889051e+002, 4.746811e+002
3.893872e+002, 4.708919e+002
3.898693e+002, 4.674413e+002
3.903514e+002, 4.645729e+002
3.908335e+002, 4.619139e+002
3.913156e+002, 4.588463e+002
3.917978e+002, 4.550999e+002
3.922799e+002, 4.516747e+002
3.927620e+002, 4.490751e+002
3.932441e+002, 4.463366e+002
3.937262e+002, 4.425711e+002
3.942083e+002, 4.380880e+002
3.946905e+002, 4.340634e+002
3.951726e+002, 4.314161e+002
3.956547e+002, 4.300673e+002
3.961368e+002, 4.292904e+002
3.966189e+002, 4.297633e+002
3.971010e+002, 4.298243e+002
3.975832e+002, 4.292876e+002
3.980653e+002, 4.279855e+002
3.985474e+002, 4.255843e+002
3.990295e+002, 4.218431e+002
3.995116e+002, 4.174182e+002
3.999937e+002, 4.129913e+002
4.004759e+002, 4.082711e+002
4.009580e+002, 4.051283e+002
4.014401e+002, 4.060722e+002
4.019222e+002, 4.072874e+002
4.024043e+002, 4.057617e+002
4.028864e+002, 4.014560e+002
4.033686e+002, 3.971057e+002
4.038507e+002, 3.949827e+002
4.043328e+002, 3.945538e+002
4.048149e+002, 3.934282e+002
4.052970e+002, 3.912094e+002
4.057791e+002, 3.887898e+002
4.062613e+002, 3.866235e+002
4.067434e+002, 3.847047e+002
4.072255e+002, 3.830549e+002
4.077076e+002, 3.819465e+002
4.081897e+002, 3.808680e+002
4.086718e+002, 3.789436e+002
4.091540e+002, 3.762233e+002
4.096361e+002, 3.743373e+002
4.101182e+002, 3.745493e+002
4.106003e+002, 3.755127e+002
4.110824e+002, 3.747657e+002
4.115645e+002, 3.718638e+002
4.120467e+002, 3.690984e+002
4.125288e+002, 3.676495e+002
4.130109e+002, 3.669480e+002
4.134930e+002, 3.658903e+002
4.139751e+002, 3.642106e+002
4.144572e+002, 3.626475e+002
4.149394e+002, 3.620604e+002
4.154215e+002, 3.625058e+002
4.159036e+002, 3.627031e+002
4.163857e+002, 3.625914e+002
4.168678e+002, 3.622313e+002
4.173499e+002, 3.613641e+002
4.178321e+002, 3.602211e+002
4.183142e+002, 3.594971e+002
4.187963e+002, 3.595588e+002
4.192784e+002, 3.603522e+002
4.197605e+002, 3.617466e+002
4.202426e+002, 3.646179e+002
4.207248e+002, 3.668830e+002
4.212069e+002, 3.676759e+002
4.216890e+002, 3.680905e+002
4.221711e+002, 3.692682e+002
4.226532e+002, 3.714525e+002
4.231353e+002, 3.740895e+002
4.236175e+002, 3.764513e+002
4.240996e+002, 3.782717e+002
4.245817e+002, 3.812158e+002
4.250638e+002, 3.855493e+002
4.255459e+002, 3.905583e+002
4.260280e+002, 3.963051e+002
4.265102e+002, 4.024889e+002
4.269923e+002, 4.087445e+002
4.274744e+002, 4.149094e+002
4.279565e+002, 4.207765e+002
4.284386e+002, 4.252773e+002
4.289207e+002, 4.266005e+002
4.294029e+002, 4.299451e+002
4.298850e+002, 4.373941e+002
4.303671e+002, 4.458585e+002
4.308492e+002, 4.529586e+002
4.313313e+002, 4.582734e+002
4.318134e+002, 4.626775e+002
4.322956e+002, 4.670209e+002
4.327777e+002, 4.713190e+002
4.332598e+002, 4.752419e+002
4.337419e+002, 4.785993e+002
4.342241e+002, 4.817650e+002
4.347062e+002, 4.854149e+002
4.351883e+002, 4.889869e+002
4.356704e+002, 4.913178e+002
4.361525e+002, 4.915876e+002
4.366346e+002, 4.908174e+002
4.371168e+002, 4.906587e+002
4.375989e+002, 4.912044e+002
4.380810e+002, 4.914202e+002
4.385631e+002, 4.911067e+002
4.390452e+002, 4.901159e+002
4.395273e+002, 4.881056e+002
4.400095e+002, 4.849596e+002
4.404916e+002, 4.820958e+002
4.409737e+002, 4.805424e+002
4.414558e+002, 4.797469e+002
4.419379e+002, 4.785434e+002
4.424200e+002, 4.767264e+002
4.429022e+002, 4.748411e+002
4.433843e+002, 4.732983e+002
4.438664e+002, 4.720671e+002
4.443485e+002, 4.708531e+002
4.448306e+002, 4.693447e+002
4.453127e+002, 4.681295e+002
4.457949e+002, 4.678604e+002
4.462770e+002, 4.681634e+002
4.467591e+002, 4.678750e+002
4.472412e+002, 4.663937e+002
4.477233e+002, 4.646444e+002
4.482054e+002, 4.645552e+002
4.486876e+002, 4.677490e+002
4.491697e+002, 4.688354e+002
4.496518e+002, 4.661706e+002
4.501339e+002, 4.623665e+002
4.506160e+002, 4.589841e+002
4.510981e+002, 4.563427e+002
4.515803e+002, 4.545778e+002
4.520624e+002, 4.540323e+002
4.525445e+002, 4.544997e+002
4.530266e+002, 4.532301e+002
4.535087e+002, 4.480488e+002
4.539908e+002, 4.435517e+002
4.544730e+002, 4.406555e+002
4.549551e+002, 4.386553e+002
4.554372e+002, 4.369808e+002
4.559193e+002, 4.353848e+002
4.564014e+002, 4.335215e+002
4.568835e+002, 4.307783e+002
4.573657e+002, 4.269107e+002
4.578478e+002, 4.232864e+002
4.583299e+002, 4.201258e+002
4.588120e+002, 4.170492e+002
4.592941e+002, 4.139421e+002
4.597762e+002, 4.107990e+002
4.602584e+002, 4.075849e+002
4.607405e+002, 4.041577e+002
4.612226e+002, 4.007897e+002
4.617047e+002, 3.981309e+002
4.621868e+002, 3.963281e+002
4.626689e+002, 3.944875e+002
4.631511e+002, 3.923887e+002
4.636332e+002, 3.900441e+002
4.641153e+002, 3.873181e+002
4.645974e+002, 3.841516e+002
4.650795e+002, 3.812539e+002
4.655616e+002, 3.791776e+002
4.660438e+002, 3.776491e+002
4.665259e+002, 3.760426e+002
4.670080e+002, 3.742883e+002
4.674901e+002, 3.724824e+002
4.679722e+002, 3.705477e+002
4.684543e+002, 3.686182e+002
4.689365e+002, 3.672355e+002
4.694186e+002, 3.668731e+002
4.699007e+002, 3.666030e+002
4.703828e+002, 3.656818e+002
4.708649e+002, 3.645233e+002
4.713470e+002, 3.644368e+002
4.718292e+002, 3.660244e+002
4.723113e+002, 3.675149e+002
4.727934e+002, 3.659438e+002
4.732755e+002, 3.595163e+002
4.737576e+002, 3.552529e+002
4.742397e+002, 3.546630e+002
4.747219e+002, 3.548184e+002
4.752040e+002, 3.541653e+002
4.756861e+002, 3.527315e+002
4.761682e+002, 3.510558e+002
4.766503e+002, 3.494438e+002
4.771324e+002, 3.479857e+002
4.776146e+002, 3.471290e+002
4.780967e+002, 3.476939e+002
4.785788e+002, 3.475061e+002
4.790609e+002, 3.457664e+002
4.795430e+002, 3.436939e+002
4.800251e+002, 3.423008e+002
4.805073e+002, 3.416736e+002
4.809894e+002, 3.411121e+002
4.814715e+002, 3.398792e+002
4.819536e+002, 3.380452e+002
4.824357e+002, 3.365953e+002
4.829178e+002, 3.358142e+002
4.834000e+002, 3.349165e+002
4.838821e+002, 3.330531e+002
4.843642e+002, 3.310484e+002
4.848463e+002, 3.302229e+002
4.853284e+002, 3.312634e+002
4.858105e+002, 3.323580e+002
4.862927e+002, 3.315710e+002
4.867748e+002, 3.291772e+002
4.872569e+002, 3.267725e+002
4.877390e+002, 3.244423e+002
4.882211e+002, 3.226797e+002
4.887032e+002, 3.225137e+002
4.891854e+002, 3.236249e+002
4.896675e+002, 3.242130e+002
4.901496e+002, 3.235461e+002
4.906317e+002, 3.225493e+002
4.911138e+002, 3.221552e+002
4.915959e+002, 3.221324e+002
4.920781e+002, 3.213748e+002
4.925602e+002, 3.192075e+002
4.930423e+002, 3.164544e+002
4.935244e+002, 3.149686e+002
4.940065e+002, 3.158066e+002
4.944886e+002, 3.159085e+002
4.949708e+002, 3.146422e+002
4.954529e+002, 3.130081e+002
4.959350e+002, 3.114878e+002
4.964171e+002, 3.102645e+002
4.968992e+002, 3.096475e+002
4.973813e+002, 3.099970e+002
4.978635e+002, 3.110350e+002
4.983456e+002, 3.109639e+002
4.988277e+002, 3.084704e+002
4.993098e+002, 3.068235e+002
4.997919e+002, 3.070475e+002
5.002740e+002, 3.078954e+002
5.007562e+002, 3.084780e+002
5.012383e+002, 3.085505e+002
5.017204e+002, 3.080517e+002
5.022025e+002, 3.064586e+002
5.026846e+002, 3.039559e+002
5.031667e+002, 3.028493e+002
5.036489e+002, 3.039780e+002
5.041310e+002, 3.049748e+002
5.046131e+002, 3.043327e+002
5.050952e+002, 3.028459e+002
5.055773e+002, 3.015362e+002
5.060594e+002, 3.004793e+002
5.065416e+002, 3.000282e+002
5.070237e+002, 3.009729e+002
5.075058e+002, 3.028376e+002
5.079879e+002, 3.038230e+002
5.084700e+002, 3.033352e+002
5.089521e+002, 3.025722e+002
5.094343e+002, 3.030150e+002
5.099164e+002, 3.046485e+002
5.103985e+002, 3.052794e+002
5.108806e+002, 3.041402e+002
5.113627e+002, 3.025928e+002
5.118448e+002, 3.011550e+002
5.123270e+002, 2.999171e+002
5.128091e+002, 2.989633e+002
5.132912e+002, 2.983345e+002
5.137733e+002, 2.980111e+002
5.142554e+002, 2.979613e+002
5.147375e+002, 2.982334e+002
5.152197e+002, 2.987017e+002
5.157018e+002, 2.998629e+002
5.161839e+002, 3.007321e+002
5.166660e+002, 3.006960e+002
5.171481e+002, 2.999427e+002
5.176302e+002, 2.989030e+002
5.181124e+002, 2.977339e+002
5.185945e+002, 2.967347e+002
5.190766e+002, 2.969738e+002
5.195587e+002, 2.991521e+002
5.200408e+002, 3.002418e+002
5.205229e+002, 2.977549e+002
5.210051e+002, 2.953424e+002
5.214872e+002, 2.960892e+002
5.219693e+002, 2.995894e+002
5.224514e+002, 3.023014e+002
5.229335e+002, 3.011964e+002
5.234156e+002, 2.982661e+002
5.238978e+002, 2.975556e+002
5.243799e+002, 2.992454e+002
5.248620e+002, 3.003641e+002
5.253441e+002, 2.991036e+002
5.258262e+002, 2.966624e+002
5.263083e+002, 2.956106e+002
5.267905e+002, 2.963129e+002
5.272726e+002, 2.970559e+002
5.277547e+002, 2.973859e+002
5.282368e+002, 2.974897e+002
5.287189e+002, 2.976873e+002
5.292010e+002, 2.979414e+002
5.296832e+002, 2.976943e+002
5.301653e+002, 2.963685e+002
5.306474e+002, 2.942558e+002
5.311295e+002, 2.933111e+002
5.316116e+002, 2.949748e+002
5.320938e+002, 2.960317e+002
5.325759e+002, 2.951473e+002
5.330580e+002, 2.942182e+002
5.335401e+002, 2.953598e+002
5.340222e+002, 2.985976e+002
5.345043e+002, 3.019456e+002
5.349865e+002, 3.035527e+002
5.354686e+002, 3.035308e+002
5.359507e+002, 3.030434e+002
5.364328e+002, 3.014702e+002
5.369149e+002, 3.006176e+002
5.373970e+002, 3.018304e+002
5.378792e+002, 3.037191e+002
5.383613e+002, 3.048421e+002
5.388434e+002, 3.048948e+002
5.393255e+002, 3.045523e+002
5.398076e+002, 3.043981e+002
5.402897e+002, 3.042393e+002
5.407719e+002, 3.032332e+002
5.412540e+002, 3.010718e+002
5.417361e+002, 2.995611e+002
5.422182e+002, 3.003838e+002
5.427003e+002, 3.029872e+002
5.431824e+002, 3.044907e+002
5.436646e+002, 3.045543e+002
5.441467e+002, 3.039853e+002
5.446288e+002, 3.021920e+002
5.451109e+002, 3.002892e+002
5.455930e+002, 3.002578e+002
5.460751e+002, 3.023143e+002
5.465573e+002, 3.041783e+002
5.470394e+002, 3.032324e+002
5.475215e+002, 2.993449e+002
5.480036e+002, 2.978586e+002
5.484857e+002, 3.022563e+002
5.489678e+002, 3.051127e+002
5.494500e+002, 3.035384e+002
5.499321e+002, 3.005295e+002
5.504142e+002, 2.994719e+002
5.508963e+002, 3.012076e+002
5.513784e+002, 3.039366e+002
5.518605e+002, 3.062972e+002
5.523427e+002, 3.081919e+002
5.528248e+002, 3.077842e+002
5.533069e+002, 3.036853e+002
5.537890e+002, 3.000193e+002
5.542711e+002, 2.995946e+002
5.547532e+002, 3.009633e+002
5.552354e+002, 3.023176e+002
5.557175e+002, 3.036058e+002
5.561996e+002, 3.041931e+002
5.566817e+002, 3.030707e+002
5.571638e+002, 3.010835e+002
5.576459e+002, 3.001479e+002
5.581281e+002, 3.006378e+002
5.586102e+002, 3.010712e+002
5.590923e+002, 3.000092e+002
5.595744e+002, 2.975655e+002
5.600565e+002, 2.962112e+002
5.605386e+002, 2.963140e+002
5.610208e+002, 2.968552e+002
5.615029e+002, 2.981141e+002
5.619850e+002, 2.994265e+002
5.624671e+002, 3.001421e+002
5.629492e+002, 3.000859e+002
5.634313e+002, 2.993259e+002
5.639135e+002, 2.977728e+002
5.643956e+002, 2.954457e+002
5.648777e+002, 2.936479e+002
5.653598e+002, 2.922258e+002
5.658419e+002, 2.916369e+002
5.663240e+002, 2.925236e+002
5.668062e+002, 2.939390e+002
5.672883e+002, 2.949068e+002
5.677704e+002, 2.952156e+002
5.682525e+002, 2.952721e+002
5.687346e+002, 2.954992e+002
5.692167e+002, 2.957109e+002
5.696989e+002, 2.952793e+002
5.701810e+002, 2.940745e+002
5.706631e+002, 2.928284e+002
5.711452e+002, 2.919958e+002
5.716273e+002, 2.914770e+002
5.721094e+002, 2.909076e+002
5.725916e+002, 2.901089e+002
5.730737e+002, 2.895818e+002
5.735558e+002, 2.895898e+002
5.740379e+002, 2.898594e+002
5.745200e+002, 2.900844e+002
5.750021e+002, 2.902457e+002
5.754843e+002, 2.905956e+002
5.759664e+002, 2.914171e+002
5.764485e+002, 2.925251e+002
5.769306e+002, 2.927058e+002
5.774127e+002, 2.910176e+002
5.778948e+002, 2.899048e+002
5.783770e+002, 2.897959e+002
5.788591e+002, 2.902339e+002
5.793412e+002, 2.912153e+002
5.798233e+002, 2.925217e+002
5.803054e+002, 2.933640e+002
5.807875e+002, 2.930279e+002
5.812697e+002, 2.918691e+002
5.817518e+002, 2.905730e+002
5.822339e+002, 2.890506e+002
5.827161e+002, 2.882488e+002
5.831982e+002, 2.889940e+002
5.836803e+002, 2.902509e+002
5.841624e+002, 2.903534e+002
5.846445e+002, 2.891787e+002
5.851266e+002, 2.882438e+002
5.856088e+002, 2.879639e+002
5.860909e+002, 2.880777e+002
5.865730e+002, 2.883861e+002
5.870551e+002, 2.888853e+002
5.875372e+002, 2.897226e+002
5.880193e+002, 2.910092e+002
5.885015e+002, 2.924240e+002
5.889836e+002, 2.932726e+002
5.894657e+002, 2.935690e+002
5.899478e+002, 2.932321e+002
5.904299e+002, 2.907386e+002
5.909120e+002, 2.891548e+002
5.913942e+002, 2.902748e+002
5.918763e+002, 2.934256e+002
5.923584e+002, 2.972028e+002
5.928405e+002, 3.011080e+002
5.933226e+002, 3.047087e+002
5.938047e+002, 3.073177e+002
5.942869e+002, 3.089514e+002
5.947690e+002, 3.101017e+002
5.952511e+002, 3.106389e+002
5.957332e+002, 3.110959e+002
5.962153e+002, 3.117865e+002
5.966974e+002, 3.127468e+002
5.971796e+002, 3.142134e+002
5.976617e+002, 3.168407e+002
5.981438e+002, 3.193194e+002
5.986259e+002, 3.211324e+002
5.991080e+002, 3.222671e+002
5.995901e+002, 3.222304e+002
6.000723e+002, 3.210202e+002
6.005544e+002, 3.203690e+002
6.010365e+002, 3.224700e+002
6.015186e+002, 3.274483e+002
6.020007e+002, 3.297238e+002
6.024828e+002, 3.265797e+002
6.029650e+002, 3.239568e+002
6.034471e+002, 3.233237e+002
6.039292e+002, 3.233950e+002
6.044113e+002, 3.228710e+002
6.048934e+002, 3.215232e+002
6.053755e+002, 3.199559e+002
6.058577e+002, 3.189012e+002
6.063398e+002, 3.180639e+002
6.068219e+002, 3.161599e+002
6.073040e+002, 3.129726e+002
6.077861e+002, 3.099149e+002
6.082682e+002, 3.074600e+002
6.087504e+002, 3.056182e+002
6.092325e+002, 3.045029e+002
6.097146e+002, 3.043138e+002
6.101967e+002, 3.037265e+002
6.106788e+002, 3.020209e+002
6.111609e+002, 3.000444e+002
6.116431e+002, 2.987016e+002
6.121252e+002, 2.978013e+002
6.126073e+002, 2.963472e+002
6.130894e+002, 2.937475e+002
6.135715e+002, 2.908903e+002
6.140536e+002, 2.898427e+002
6.145358e+002, 2.915771e+002
6.150179e+002, 2.927387e+002
6.155000e+002, 2.927545e+002
6.159821e+002, 2.927631e+002
6.164642e+002, 2.932981e+002
6.169464e+002, 2.941672e+002
6.174285e+002, 2.949343e+002
6.179106e+002, 2.954034e+002
6.183927e+002, 2.958432e+002
6.188748e+002, 2.968753e+002
6.193569e+002, 2.982499e+002
6.198391e+002, 2.983582e+002
6.203212e+002, 2.965920e+002
6.208033e+002, 2.950242e+002
6.212854e+002, 2.954835e+002
6.217675e+002, 2.976253e+002
6.222496e+002, 2.991774e+002
6.227318e+002, 3.003967e+002
6.232139e+002, 3.007166e+002
6.236960e+002, 2.993418e+002
6.241781e+002, 2.973539e+002
6.246602e+002, 2.958584e+002
6.251423e+002, 2.949947e+002
6.256245e+002, 2.943579e+002
6.261066e+002, 2.936289e+002
6.265887e+002, 2.928566e+002
6.270708e+002, 2.922472e+002
6.275529e+002, 2.918117e+002
6.280350e+002, 2.915186e+002
6.285172e+002, 2.918844e+002
6.289993e+002, 2.919762e+002
6.294814e+002, 2.910330e+002
6.299635e+002, 2.891883e+002
6.304456e+002, 2.872618e+002
6.309277e+002, 2.853806e+002
6.314099e+002, 2.837892e+002
6.318920e+002, 2.828153e+002
6.323741e+002, 2.823798e+002
6.328562e+002, 2.822277e+002
6.333383e+002, 2.823224e+002
6.338204e+002, 2.824427e+002
6.343026e+002, 2.824057e+002
6.347847e+002, 2.822694e+002
6.352668e+002, 2.813516e+002
6.357489e+002, 2.787647e+002
6.362310e+002, 2.765625e+002
6.367131e+002, 2.756785e+002
6.371953e+002, 2.753314e+002
6.376774e+002, 2.746342e+002
6.381595e+002, 2.733870e+002
6.386416e+002, 2.719145e+002
6.391237e+002, 2.704023e+002
6.396058e+002, 2.689238e+002
6.400880e+002, 2.679594e+002
6.405701e+002, 2.677225e+002
6.410522e+002, 2.671168e+002
6.415343e+002, 2.653191e+002
6.420164e+002, 2.632451e+002
6.424985e+002, 2.621234e+002
6.429807e+002, 2.620045e+002
6.434628e+002, 2.620760e+002
6.439449e+002, 2.620714e+002
6.444270e+002, 2.622082e+002
6.449091e+002, 2.628966e+002
6.453912e+002, 2.638714e+002
6.458734e+002, 2.644686e+002
6.463555e+002, 2.644168e+002
6.468376e+002, 2.638508e+002
6.473197e+002, 2.629088e+002
6.478018e+002, 2.614791e+002
6.482839e+002, 2.602657e+002
6.487661e+002, 2.588581e+002
6.492482e+002, 2.582089e+002
6.497303e+002, 2.594502e+002
6.502124e+002, 2.611879e+002
6.506945e+002, 2.614088e+002
6.511766e+002, 2.596352e+002
6.516588e+002, 2.580890e+002
6.521409e+002, 2.590400e+002
6.526230e+002, 2.612291e+002
6.531051e+002, 2.619236e+002
6.535872e+002, 2.610057e+002
6.540693e+002, 2.600455e+002
6.545515e+002, 2.598197e+002
6.550336e+002, 2.600934e+002
6.555157e+002, 2.603489e+002
6.559978e+002, 2.603382e+002
6.564799e+002, 2.609561e+002
6.569620e+002, 2.631230e+002
6.574442e+002, 2.650078e+002
6.579263e+002, 2.653162e+002
6.584084e+002, 2.647109e+002
6.588905e+002, 2.643718e+002
6.593726e+002, 2.647750e+002
6.598547e+002, 2.658045e+002
6.603369e+002, 2.678463e+002
6.608190e+002, 2.707293e+002
6.613011e+002, 2.717646e+002
6.617832e+002, 2.702892e+002
6.622653e+002, 2.684055e+002
6.627474e+002, 2.669757e+002
6.632296e+002, 2.660168e+002
6.637117e+002, 2.656844e+002
6.641938e+002, 2.663768e+002
6.646759e+002, 2.663614e+002
6.651580e+002, 2.638955e+002
6.656401e+002, 2.614005e+002
6.661223e+002, 2.614651e+002
6.666044e+002, 2.635729e+002
6.670865e+002, 2.656251e+002
6.675686e+002, 2.665527e+002
6.680507e+002, 2.667614e+002
6.685328e+002, 2.669861e+002
6.690150e+002, 2.672290e+002
6.694971e+002, 2.674844e+002
6.699792e+002, 2.678338e+002
6.704613e+002, 2.680867e+002
6.709434e+002, 2.679842e+002
6.714255e+002, 2.678057e+002
6.719077e+002, 2.680573e+002
6.723898e+002, 2.689506e+002
6.728719e+002, 2.697220e+002
6.733540e+002, 2.696712e+002
6.738361e+002, 2.692944e+002
6.743182e+002, 2.694437e+002
6.748004e+002, 2.701154e+002
6.752825e+002, 2.705677e+002
6.757646e+002, 2.702682e+002
6.762467e+002, 2.698456e+002
6.767288e+002, 2.708914e+002
6.772109e+002, 2.747773e+002
6.776931e+002, 2.769072e+002
6.781752e+002, 2.764210e+002
6.786573e+002, 2.752426e+002
6.791394e+002, 2.736526e+002
6.796215e+002, 2.720831e+002
6.801036e+002, 2.710640e+002
6.805858e+002, 2.707645e+002
6.810679e+002, 2.711544e+002
6.815500e+002, 2.727452e+002
6.820321e+002, 2.749536e+002
6.825142e+002, 2.759590e+002
6.829963e+002, 2.755549e+002
6.834785e+002, 2.751412e+002
6.839606e+002, 2.756266e+002
6.844427e+002, 2.764250e+002
6.849248e+002, 2.759984e+002
6.854069e+002, 2.729805e+002
6.858890e+002, 2.720282e+002
6.863712e+002, 2.752112e+002
6.868533e+002, 2.785260e+002
6.873354e+002, 2.800497e+002
6.878175e+002, 2.800989e+002
6.882996e+002, 2.792455e+002
6.887817e+002, 2.777289e+002
6.892639e+002, 2.764698e+002
6.897460e+002, 2.767037e+002
6.902281e+002, 2.782493e+002
6.907102e+002, 2.800359e+002
6.911923e+002, 2.821982e+002
6.916744e+002, 2.837685e+002
6.921566e+002, 2.842189e+002
6.926387e+002, 2.837993e+002
6.931208e+002, 2.827143e+002
6.936029e+002, 2.805316e+002
6.940850e+002, 2.795981e+002
6.945671e+002, 2.814553e+002
6.950493e+002, 2.835611e+002
6.955314e+002, 2.842545e+002
6.960135e+002, 2.839637e+002
6.964956e+002, 2.837045e+002
6.969777e+002, 2.838526e+002
6.974598e+002, 2.841245e+002
6.979420e+002, 2.841366e+002
6.984241e+002, 2.839022e+002
6.989062e+002, 2.836257e+002
6.993883e+002, 2.828876e+002
6.998704e+002, 2.833654e+002
7.003525e+002, 2.870872e+002
7.008347e+002, 2.914953e+002
7.013168e+002, 2.929555e+002
7.017989e+002, 2.911963e+002
7.022810e+002, 2.895433e+002
7.027631e+002, 2.883893e+002
7.032452e+002, 2.881001e+002
7.037274e+002, 2.896891e+002
7.042095e+002, 2.921814e+002
7.046916e+002, 2.936118e+002
7.051737e+002, 2.933823e+002
7.056558e+002, 2.925140e+002
7.061379e+002, 2.921743e+002
7.066201e+002, 2.923262e+002
7.071022e+002, 2.922552e+002
7.075843e+002, 2.917682e+002
7.080664e+002, 2.915088e+002
7.085485e+002, 2.917531e+002
7.090306e+002, 2.922649e+002
7.095128e+002, 2.927393e+002
7.099949e+002, 2.932056e+002
7.104770e+002, 2.941266e+002
7.109591e+002, 2.962891e+002
7.114412e+002, 2.983434e+002
7.119233e+002, 2.995305e+002
7.124055e+002, 2.998429e+002
7.128876e+002, 2.988220e+002
7.133697e+002, 2.965494e+002
7.138518e+002, 2.946371e+002
7.143339e+002, 2.947570e+002
7.148160e+002, 2.966096e+002
7.152982e+002, 2.980336e+002
7.157803e+002, 2.990333e+002
7.162624e+002, 2.995942e+002
7.167445e+002, 2.993150e+002
7.172266e+002, 2.989308e+002
7.177087e+002, 2.991725e+002
7.181909e+002, 2.998010e+002
7.186730e+002, 2.997596e+002
7.191551e+002, 2.980103e+002
7.196372e+002, 2.964463e+002
7.201193e+002, 2.965323e+002
7.206014e+002, 2.975988e+002
7.210836e+002, 2.985917e+002
7.215657e+002, 2.993097e+002
7.220478e+002, 2.999651e+002
7.225299e+002, 3.007185e+002
7.230120e+002, 3.015241e+002
7.234941e+002, 3.023376e+002
7.239763e+002, 3.036265e+002
7.244584e+002, 3.035725e+002
7.249405e+002, 3.002033e+002
7.254226e+002, 2.973770e+002
7.259047e+002, 2.976740e+002
7.263868e+002, 2.999123e+002
7.268690e+002, 3.015442e+002
7.273511e+002, 3.018616e+002
7.278332e+002, 3.018298e+002
7.283153e+002, 3.022025e+002
7.287974e+002, 3.024641e+002
7.292795e+002, 3.016581e+002
7.297617e+002, 2.999425e+002
7.302438e+002, 2.983503e+002
7.307259e+002, 2.974009e+002
7.312080e+002, 2.971773e+002
7.316901e+002, 2.981085e+002
7.321722e+002, 3.007780e+002
7.326544e+002, 3.020926e+002
7.331365e+002, 3.013255e+002
7.336186e+002, 3.001765e+002
7.341007e+002, 2.988068e+002
7.345828e+002, 2.977378e+002
7.350649e+002, 2.979061e+002
7.355471e+002, 2.995558e+002
7.360292e+002, 3.008264e+002
7.365113e+002, 3.002544e+002
7.369934e+002, 2.993697e+002
7.374755e+002, 3.001166e+002
7.379576e+002, 3.018458e+002
7.384398e+002, 3.024460e+002
7.389219e+002, 3.011897e+002
7.394040e+002, 2.992708e+002
7.398861e+002, 2.981152e+002
7.403682e+002, 2.977090e+002
7.408503e+002, 2.974857e+002
7.413325e+002, 2.973770e+002
7.418146e+002, 2.975935e+002
7.422967e+002, 2.985479e+002
7.427788e+002, 2.995824e+002
7.432609e+002, 3.001244e+002
7.437430e+002, 3.002054e+002
7.442252e+002, 3.002416e+002
7.447073e+002, 3.004217e+002
7.451894e+002, 3.005291e+002
7.456715e+002, 3.004069e+002
7.461536e+002, 3.001293e+002
7.466357e+002, 2.998177e+002
7.471179e+002, 2.994897e+002
7.476000e+002, 2.990600e+002
7.480821e+002, 2.984204e+002
7.485642e+002, 2.977148e+002
7.490463e+002, 2.974785e+002
7.495284e+002, 2.978822e+002
7.500106e+002, 2.979807e+002
7.504927e+002, 2.975048e+002
7.509748e+002, 2.969041e+002
7.514569e+002, 2.965421e+002
7.519390e+002, 2.962707e+002
7.524211e+002, 2.957101e+002
7.529033e+002, 2.945490e+002
7.533854e+002, 2.937291e+002
7.538675e+002, 2.940540e+002
7.543496e+002, 2.945112e+002
7.548317e+002, 2.940933e+002
7.553138e+002, 2.929581e+002
7.557960e+002, 2.916228e+002
7.562781e+002, 2.903224e+002
7.567602e+002, 2.894651e+002
7.572423e+002, 2.898583e+002
7.577244e+002, 2.914509e+002
7.582065e+002, 2.926219e+002
7.586887e+002, 2.932402e+002
7.591708e+002, 2.938155e+002
7.596529e+002, 2.947374e+002
7.601350e+002, 2.955777e+002
7.606171e+002, 2.955299e+002
7.610992e+002, 2.945195e+002
7.615814e+002, 2.938996e+002
7.620635e+002, 2.940937e+002
7.625456e+002, 2.944239e+002
7.630277e+002, 2.945477e+002
7.635098e+002, 2.946441e+002
7.639919e+002, 2.951071e+002
7.644741e+002, 2.958957e+002
7.649562e+002, 2.963694e+002
7.654383e+002, 2.958379e+002
7.659204e+002, 2.949046e+002
7.664025e+002, 2.948215e+002
7.668846e+002, 2.955865e+002
7.673668e+002, 2.973505e+002
7.678489e+002, 3.004716e+002
7.683310e+002, 3.034207e+002
7.688131e+002, 3.048476e+002
7.692952e+002, 3.050131e+002
7.697773e+002, 3.054287e+002
7.702595e+002, 3.055518e+002
7.707416e+002, 3.067046e+002
7.712237e+002, 3.099777e+002
7.717058e+002, 3.133528e+002
7.721879e+002, 3.153828e+002
7.726700e+002, 3.165407e+002
7.731522e+002, 3.178877e+002
7.736343e+002, 3.197839e+002
7.741164e+002, 3.222669e+002
7.745985e+002, 3.258775e+002
7.750806e+002, 3.299606e+002
7.755627e+002, 3.328088e+002
7.760449e+002, 3.344520e+002
7.765270e+002, 3.363091e+002
7.770091e+002, 3.389769e+002
7.774912e+002, 3.422396e+002
7.779733e+002, 3.456879e+002
7.784554e+002, 3.492457e+002
7.789376e+002, 3.538823e+002
7.794197e+002, 3.602089e+002
7.799019e+002, 3.668439e+002
7.803840e+002, 3.736725e+002
7.808661e+002, 3.805764e+002
7.813482e+002, 3.870566e+002
7.818303e+002, 3.933671e+002
7.823124e+002, 4.008031e+002
7.827946e+002, 4.106356e+002
7.832767e+002, 4.209469e+002
7.837588e+002, 4.298411e+002
7.842409e+002, 4.382551e+002
7.847230e+002, 4.475262e+002
7.852051e+002, 4.580034e+002
7.856873e+002, 4.703900e+002
7.861694e+002, 4.853281e+002
7.866515e+002, 5.016808e+002
7.871336e+002, 5.162646e+002
7.876157e+002, 5.283738e+002
7.880978e+002, 5.422830e+002
7.885800e+002, 5.589776e+002
7.890621e+002, 5.762417e+002
7.895442e+002, 5.926875e+002
7.900263e+002, 6.091029e+002
7.905084e+002, 6.272319e+002
7.909905e+002, 6.474822e+002
7.914727e+002, 6.671727e+002
7.919548e+002, 6.849750e+002
7.924369e+002, 7.025471e+002
7.929190e+002, 7.207715e+002
7.934011e+002, 7.397142e+002
7.938832e+002, 7.602160e+002
7.943654e+002, 7.820498e+002
7.948475e+002, 8.024272e+002
7.953296e+002, 8.180563e+002
7.958117e+002, 8.310502e+002
7.962938e+002, 8.477515e+002
7.967759e+002, 8.680228e+002
7.972581e+002, 8.851666e+002
7.977402e+002, 8.972045e+002
7.982223e+002, 9.070240e+002
7.987044e+002, 9.169857e+002
7.991865e+002, 9.268058e+002
7.996686e+002, 9.347306e+002
8.001508e+002, 9.402109e+002
8.006329e+002, 9.445309e+002
8.011150e+002, 9.474450e+002
8.015971e+002, 9.494752e+002
8.020792e+002, 9.517508e+002
8.025613e+002, 9.531467e+002
8.030435e+002, 9.517327e+002
8.035256e+002, 9.469458e+002
8.040077e+002, 9.395353e+002
8.044898e+002, 9.292208e+002
8.049719e+002, 9.171819e+002
8.054540e+002, 9.050858e+002
8.059362e+002, 8.928165e+002
8.064183e+002, 8.796653e+002
8.069004e+002, 8.653806e+002
8.073825e+002, 8.493719e+002
8.078646e+002, 8.306614e+002
8.083467e+002, 8.095065e+002
8.088289e+002, 7.893717e+002
8.093110e+002, 7.710087e+002
8.097931e+002, 7.515549e+002
8.102752e+002, 7.301257e+002
8.107573e+002, 7.077948e+002
8.112394e+002, 6.848149e+002
8.117216e+002, 6.617009e+002
8.122037e+002, 6.406080e+002
8.126858e+002, 6.225488e+002
8.131679e+002, 6.049942e+002
8.136500e+002, 5.870656e+002
8.141321e+002, 5.693843e+002
8.146143e+002, 5.529712e+002
8.150964e+002, 5.373124e+002
8.155785e+002, 5.206378e+002
8.160606e+002, 5.023152e+002
8.165427e+002, 4.845416e+002
8.170248e+002, 4.700497e+002
8.175070e+002, 4.581596e+002
8.179891e+002, 4.468887e+002
8.184712e+002, 4.361514e+002
8.189533e+002, 4.244472e+002
8.194354e+002, 4.109094e+002
8.199175e+002, 3.976747e+002
8.203997e+002, 3.872730e+002
8.208818e+002, 3.796702e+002
8.213639e+002, 3.727730e+002
8.218460e+002, 3.676631e+002
8.223281e+002, 3.616374e+002
8.228102e+002, 3.530284e+002
8.232924e+002, 3.446979e+002
8.237745e+002, 3.388648e+002
8.242566e+002, 3.348060e+002
8.247387e+002, 3.305610e+002
8.252208e+002, 3.255408e+002
8.257029e+002, 3.202990e+002
8.261851e+002, 3.144235e+002
8.266672e+002, 3.090308e+002
8.271493e+002, 3.061992e+002
8.276314e+002, 3.050236e+002
8.281135e+002, 3.022190e+002
8.285956e+002, 2.965835e+002
8.290778e+002, 2.907434e+002
8.295599e+002, 2.882551e+002
8.300420e+002, 2.884582e+002
8.305241e+002, 2.865058e+002
8.310062e+002, 2.819364e+002
8.314883e+002, 2.784024e+002
8.319705e+002, 2.772511e+002
8.324526e+002, 2.767460e+002
8.329347e+002, 2.752565e+002
8.334168e+002, 2.729026e+002
8.338989e+002, 2.708874e+002
8.343810e+002, 2.694739e+002
8.348632e+002, 2.679731e+002
8.353453e+002, 2.661025e+002
8.358274e+002, 2.643334e+002
8.363095e+002, 2.626469e+002
8.367916e+002, 2.613622e+002
8.372737e+002, 2.614784e+002
8.377559e+002, 2.634194e+002
8.382380e+002, 2.642882e+002
8.387201e+002, 2.607529e+002
8.392022e+002, 2.557198e+002
8.396843e+002, 2.531697e+002
8.401664e+002, 2.526292e+002
8.406486e+002, 2.521485e+002
8.411307e+002, 2.511255e+002
8.416128e+002, 2.498684e+002
8.420949e+002, 2.486077e+002
8.425770e+002, 2.474506e+002
8.430591e+002, 2.471026e+002
8.435413e+002, 2.478746e+002
8.440234e+002, 2.477112e+002
8.445055e+002, 2.456032e+002
8.449876e+002, 2.438225e+002
8.454697e+002, 2.444025e+002
8.459518e+002, 2.463612e+002
8.464340e+002, 2.468432e+002
8.469161e+002, 2.454445e+002
8.473982e+002, 2.437384e+002
8.478803e+002, 2.410650e+002
8.483624e+002, 2.390163e+002
8.488445e+002, 2.387491e+002
8.493267e+002, 2.394146e+002
8.498088e+002, 2.400768e+002
8.502909e+002, 2.404557e+002
8.507730e+002, 2.402492e+002
8.512551e+002, 2.386259e+002
8.517372e+002, 2.369670e+002
8.522194e+002, 2.373789e+002
8.527015e+002, 2.389876e+002
8.531836e+002, 2.394104e+002
8.536657e+002, 2.383781e+002
8.541478e+002, 2.376935e+002
8.546299e+002, 2.386540e+002
8.551121e+002, 2.403411e+002
8.555942e+002, 2.406770e+002
8.560763e+002, 2.395282e+002
8.565584e+002, 2.379314e+002
8.570405e+002, 2.354806e+002
8.575226e+002, 2.337307e+002
8.580048e+002, 2.334047e+002
8.584869e+002, 2.340778e+002
8.589690e+002, 2.355038e+002
8.594511e+002, 2.377921e+002
8.599332e+002, 2.389521e+002
8.604153e+002, 2.384032e+002
8.608975e+002, 2.373741e+002
8.613796e+002, 2.354518e+002
8.618617e+002, 2.337851e+002
8.623438e+002, 2.337241e+002
8.628259e+002, 2.348056e+002
8.633080e+002, 2.353802e+002
8.637902e+002, 2.346856e+002
8.642723e+002, 2.337085e+002
8.647544e+002, 2.331344e+002
8.652365e+002, 2.328757e+002
8.657186e+002, 2.329923e+002
8.662007e+002, 2.333210e+002
8.666829e+002, 2.332346e+002
8.671650e+002, 2.325122e+002
8.676471e+002, 2.317001e+002
8.681292e+002, 2.315423e+002
8.686113e+002, 2.318413e+002
8.690934e+002, 2.313279e+002
8.695756e+002, 2.298790e+002
8.700577e+002, 2.284318e+002
8.705398e+002, 2.269549e+002
8.710219e+002, 2.261033e+002
8.715040e+002, 2.266083e+002
8.719861e+002, 2.280948e+002
8.724683e+002, 2.291786e+002
8.729504e+002, 2.295467e+002
8.734325e+002, 2.300904e+002
8.739146e+002, 2.314043e+002
8.743967e+002, 2.322250e+002
8.748788e+002, 2.316290e+002
8.753610e+002, 2.304408e+002
8.758431e+002, 2.297279e+002
8.763252e+002, 2.296205e+002
8.768073e+002, 2.295205e+002
8.772894e+002, 2.289685e+002
8.777715e+002, 2.284990e+002
8.782537e+002, 2.285808e+002
8.787358e+002, 2.289854e+002
8.792179e+002, 2.295531e+002
8.797000e+002, 2.301211e+002
8.801821e+002, 2.300910e+002
8.806642e+002, 2.290440e+002
8.811464e+002, 2.280466e+002
8.816285e+002, 2.292353e+002
8.821106e+002, 2.320488e+002
8.825927e+002, 2.331636e+002
8.830748e+002, 2.323921e+002
8.835569e+002, 2.313294e+002
8.840391e+002, 2.304917e+002
8.845212e+002, 2.298915e+002
8.850033e+002, 2.295057e+002
8.854854e+002, 2.293503e+002
8.859675e+002, 2.297777e+002
8.864496e+002, 2.315012e+002
8.869318e+002, 2.323862e+002
8.874139e+002, 2.316946e+002
8.878960e+002, 2.305882e+002
8.883781e+002, 2.294056e+002
8.888602e+002, 2.283587e+002
8.893423e+002, 2.279345e+002
8.898245e+002, 2.283634e+002
8.903066e+002, 2.286104e+002
8.907887e+002, 2.280918e+002
8.912708e+002, 2.276382e+002
8.917529e+002, 2.278634e+002
8.922350e+002, 2.283916e+002
8.927172e+002, 2.286680e+002
8.931993e+002, 2.286463e+002
8.936814e+002, 2.286874e+002
8.941635e+002, 2.290160e+002
8.946456e+002, 2.294875e+002
8.951277e+002, 2.300434e+002
8.956099e+002, 2.305727e+002
8.960920e+002, 2.308966e+002
8.965741e+002, 2.309552e+002
8.970562e+002, 2.304132e+002
8.975383e+002, 2.290801e+002
8.980204e+002, 2.277299e+002
8.985026e+002, 2.275951e+002
8.989847e+002, 2.285550e+002
8.994668e+002, 2.289600e+002
8.999489e+002, 2.286327e+002
9.004310e+002, 2.288721e+002
9.009131e+002, 2.303684e+002
9.013953e+002, 2.316623e+002
9.018774e+002, 2.312474e+002
9.023595e+002, 2.296309e+002
9.028416e+002, 2.291488e+002
9.033237e+002, 2.307641e+002
9.038058e+002, 2.317734e+002
9.042880e+002, 2.320318e+002
9.047701e+002, 2.318860e+002
9.052522e+002, 2.311541e+002
9.057343e+002, 2.302802e+002
9.062164e+002, 2.298911e+002
9.066985e+002, 2.300083e+002
9.071807e+002, 2.299142e+002
9.076628e+002, 2.289220e+002
9.081449e+002, 2.281607e+002
9.086270e+002, 2.285965e+002
9.091091e+002, 2.293510e+002
9.095912e+002, 2.293128e+002
9.100734e+002, 2.286497e+002
9.105555e+002, 2.281975e+002
9.110376e+002, 2.283170e+002
9.115197e+002, 2.288923e+002
9.120018e+002, 2.303025e+002
9.124839e+002, 2.318686e+002
9.129661e+002, 2.320188e+002
9.134482e+002, 2.309525e+002
9.139303e+002, 2.296824e+002
9.144124e+002, 2.285039e+002
9.148945e+002, 2.277089e+002
9.153766e+002, 2.276486e+002
9.158588e+002, 2.279626e+002
9.163409e+002, 2.271025e+002
9.168230e+002, 2.247238e+002
9.173051e+002, 2.249137e+002
9.177872e+002, 2.290389e+002
9.182693e+002, 2.322470e+002
9.187515e+002, 2.316776e+002
9.192336e+002, 2.295414e+002
9.197157e+002, 2.293361e+002
9.201978e+002, 2.313406e+002
9.206799e+002, 2.324890e+002
9.211620e+002, 2.318863e+002
9.216442e+002, 2.316604e+002
9.221263e+002, 2.321241e+002
9.226084e+002, 2.330170e+002
9.230905e+002, 2.345443e+002
9.235726e+002, 2.362929e+002
9.240547e+002, 2.374716e+002
9.245369e+002, 2.380565e+002
9.250190e+002, 2.375301e+002
9.255011e+002, 2.340339e+002
9.259832e+002, 2.311196e+002
9.264653e+002, 2.318530e+002
9.269474e+002, 2.342799e+002
9.274296e+002, 2.355497e+002
9.279117e+002, 2.353103e+002
9.283938e+002, 2.349244e+002
9.288759e+002, 2.351780e+002
9.293580e+002, 2.356150e+002
9.298401e+002, 2.357776e+002
9.303223e+002, 2.357436e+002
9.308044e+002, 2.355324e+002
9.312865e+002, 2.352476e+002
9.317686e+002, 2.351734e+002
9.322507e+002, 2.354352e+002
9.327328e+002, 2.362789e+002
9.332150e+002, 2.383578e+002
9.336971e+002, 2.410135e+002
9.341792e+002, 2.412814e+002
9.346613e+002, 2.391662e+002
9.351434e+002, 2.379974e+002
9.356255e+002, 2.384337e+002
9.361077e+002, 2.396236e+002
9.365898e+002, 2.412485e+002
9.370719e+002, 2.428362e+002
9.375540e+002, 2.432948e+002
9.380361e+002, 2.424063e+002
9.385182e+002, 2.414528e+002
9.390004e+002, 2.395889e+002
9.394825e+002, 2.393823e+002
9.399646e+002, 2.429638e+002
9.404467e+002, 2.470800e+002
9.409288e+002, 2.484956e+002
9.414109e+002, 2.478367e+002
9.418931e+002, 2.478071e+002
9.423752e+002, 2.489009e+002
9.428573e+002, 2.498784e+002
9.433394e+002, 2.501766e+002
9.438215e+002, 2.507870e+002
9.443036e+002, 2.525728e+002
9.447858e+002, 2.547690e+002
9.452679e+002, 2.562842e+002
9.457500e+002, 2.570468e+002
9.462321e+002, 2.579580e+002
9.467142e+002, 2.597203e+002
9.471964e+002, 2.613209e+002
9.476785e+002, 2.615034e+002
9.481606e+002, 2.616811e+002
9.486427e+002, 2.639456e+002
9.491248e+002, 2.675544e+002
9.496069e+002, 2.699358e+002
9.500891e+002, 2.702104e+002
9.505712e+002, 2.708650e+002
9.510533e+002, 2.746546e+002
9.515354e+002, 2.799697e+002
9.520175e+002, 2.842471e+002
9.524996e+002, 2.878190e+002
9.529818e+002, 2.915568e+002
9.534639e+002, 2.956656e+002
9.539460e+002, 3.000947e+002
9.544281e+002, 3.048016e+002
9.549102e+002, 3.099445e+002
9.553923e+002, 3.160135e+002
9.558745e+002, 3.228817e+002
9.563566e+002, 3.288054e+002
9.568387e+002, 3.337049e+002
9.573208e+002, 3.390502e+002
9.578029e+002, 3.451275e+002
9.582850e+002, 3.528766e+002
9.587672e+002, 3.636406e+002
9.592493e+002, 3.763352e+002
9.597314e+002, 3.862181e+002
9.602135e+002, 3.917127e+002
9.606956e+002, 4.004037e+002
9.611777e+002, 4.138573e+002
9.616599e+002, 4.277339e+002
9.621420e+002, 4.395788e+002
9.626241e+002, 4.515380e+002
9.631062e+002, 4.667847e+002
9.635883e+002, 4.852710e+002
9.640704e+002, 5.025512e+002
9.645526e+002, 5.173896e+002
9.650347e+002, 5.328815e+002
9.655168e+002, 5.494550e+002
9.659989e+002, 5.665617e+002
9.664810e+002, 5.844006e+002
9.669631e+002, 6.023417e+002
9.674453e+002, 6.193359e+002
9.679274e+002, 6.353118e+002
9.684095e+002, 6.518721e+002
9.688916e+002, 6.702757e+002
9.693737e+002, 6.884720e+002
9.698558e+002, 7.052365e+002
9.703380e+002, 7.217695e+002
9.708201e+002, 7.384193e+002
9.713022e+002, 7.558947e+002
9.717843e+002, 7.763363e+002
9.722664e+002, 8.006183e+002
9.727485e+002, 8.236092e+002
9.732307e+002, 8.417910e+002
9.737128e+002, 8.570078e+002
9.741949e+002, 8.714953e+002
9.746770e+002, 8.841072e+002
9.751591e+002, 8.932819e+002
9.756412e+002, 8.985284e+002
9.761234e+002, 8.998449e+002
9.766055e+002, 8.974099e+002
9.770876e+002, 8.897061e+002
9.775698e+002, 8.743311e+002
9.780519e+002, 8.525543e+002
9.785340e+002, 8.263085e+002
9.790161e+002, 7.961526e+002
9.794982e+002, 7.632881e+002
9.799803e+002, 7.281362e+002
9.804625e+002, 6.919681e+002
9.809446e+002, 6.556067e+002
9.814267e+002, 6.193614e+002
9.819088e+002, 5.830495e+002
9.823909e+002, 5.470820e+002
9.828730e+002, 5.146727e+002
9.833552e+002, 4.860984e+002
9.838373e+002, 4.612552e+002
9.843194e+002, 4.403847e+002
9.848015e+002, 4.213950e+002
9.852836e+002, 4.017383e+002
9.857657e+002, 3.822106e+002
9.862479e+002, 3.668190e+002
9.867300e+002, 3.561476e+002
9.872121e+002, 3.465192e+002
9.876942e+002, 3.376484e+002
9.881763e+002, 3.296083e+002
9.886584e+002, 3.225070e+002
9.891406e+002, 3.161844e+002
9.896227e+002, 3.104960e+002
9.901048e+002, 3.054047e+002
9.905869e+002, 3.009694e+002
9.910690e+002, 2.972115e+002
9.915511e+002, 2.941026e+002
9.920333e+002, 2.923230e+002
9.925154e+002, 2.903094e+002
9.929975e+002, 2.866635e+002
9.934796e+002, 2.825389e+002
9.939617e+002, 2.798007e+002
9.944438e+002, 2.785574e+002
9.949260e+002, 2.774813e+002
9.954081e+002, 2.767582e+002
9.958902e+002, 2.758191e+002
9.963723e+002, 2.742422e+002
9.968544e+002, 2.727047e+002
9.973365e+002, 2.715405e+002
9.978187e+002, 2.707899e+002
9.983008e+002, 2.707198e+002
9.987829e+002, 2.715002e+002
9.992650e+002, 2.714387e+002
9.997471e+002, 2.690288e+002
1.000229e+003, 2.668953e+002
1.000711e+003, 2.666888e+002
1.001193e+003, 2.669695e+002
1.001676e+003, 2.660987e+002
1.002158e+003, 2.645190e+002
1.002640e+003, 2.639166e+002
1.003122e+003, 2.649341e+002
1.003604e+003, 2.654135e+002
1.004086e+003, 2.636647e+002
1.004568e+003, 2.613855e+002
1.005050e+003, 2.594487e+002
1.005533e+003, 2.581320e+002
1.006015e+003, 2.578143e+002
1.006497e+003, 2.584266e+002
1.006979e+003, 2.598430e+002
1.007461e+003, 2.621404e+002
1.007943e+003, 2.638296e+002
1.008425e+003, 2.632637e+002
1.008907e+003, 2.615992e+002
1.009389e+003, 2.599709e+002
1.009872e+003, 2.585430e+002
1.010354e+003, 2.574981e+002
1.010836e+003, 2.568913e+002
1.011318e+003, 2.568472e+002
1.011800e+003, 2.574830e+002
1.012282e+003, 2.583258e+002
1.012764e+003, 2.588880e+002
1.013246e+003, 2.591854e+002
1.013729e+003, 2.592181e+002
1.014211e+003, 2.590197e+002
1.014693e+003, 2.584315e+002
1.015175e+003, 2.575595e+002
1.015657e+003, 2.577053e+002
1.016139e+003, 2.599627e+002
1.016621e+003, 2.625988e+002
1.017103e+003, 2.621498e+002
1.017585e+003, 2.594557e+002
1.018068e+003, 2.583540e+002
1.018550e+003, 2.588332e+002
1.019032e+003, 2.594956e+002
1.019514e+003, 2.599441e+002
1.019996e+003, 2.600606e+002
1.020478e+003, 2.596525e+002
1.020960e+003, 2.591858e+002
1.021442e+003, 2.598801e+002
1.021924e+003, 2.616826e+002
1.022407e+003, 2.635037e+002
1.022889e+003, 2.653713e+002
1.023371e+003, 2.658886e+002
1.023853e+003, 2.644815e+002
1.024335e+003, 2.623794e+002
1.024817e+003, 2.604458e+002
1.025299e+003, 2.590662e+002
1.025781e+003, 2.597701e+002
1.026264e+003, 2.629362e+002
1.026746e+003, 2.650922e+002
1.027228e+003, 2.661353e+002
1.027710e+003, 2.660020e+002
1.028192e+003, 2.642266e+002
1.028674e+003, 2.625746e+002
1.029156e+003, 2.630083e+002
1.029638e+003, 2.647707e+002
1.030120e+003, 2.644956e+002
1.030603e+003, 2.610187e+002
1.031085e+003, 2.599771e+002
1.031567e+003, 2.622759e+002
1.032049e+003, 2.651186e+002
1.032531e+003, 2.681182e+002
1.033013e+003, 2.703970e+002
1.033495e+003, 2.709047e+002
1.033977e+003, 2.699510e+002
1.034459e+003, 2.690222e+002
1.034942e+003, 2.676128e+002
1.035424e+003, 2.675118e+002
1.035906e+003, 2.698654e+002
1.036388e+003, 2.715533e+002
1.036870e+003, 2.707838e+002
1.037352e+003, 2.696669e+002
1.037834e+003, 2.704103e+002
1.038316e+003, 2.726925e+002
1.038799e+003, 2.745904e+002
1.039281e+003, 2.761828e+002
1.039763e+003, 2.772488e+002
1.040245e+003, 2.776101e+002
1.040727e+003, 2.776821e+002
1.041209e+003, 2.771826e+002
1.041691e+003, 2.767797e+002
1.042173e+003, 2.773367e+002
1.042656e+003, 2.786094e+002
1.043138e+003, 2.792656e+002
1.043620e+003, 2.785812e+002
1.044102e+003, 2.786375e+002
1.044584e+003, 2.803286e+002
1.045066e+003, 2.818176e+002
1.045548e+003, 2.825508e+002
1.046030e+003, 2.826841e+002
1.046512e+003, 2.819187e+002
1.046995e+003, 2.806320e+002
1.047477e+003, 2.804402e+002
1.047959e+003, 2.819120e+002
1.048441e+003, 2.835786e+002
1.048923e+003, 2.859644e+002
1.049405e+003, 2.876007e+002
1.049887e+003, 2.870218e+002
1.050369e+003, 2.860703e+002
1.050851e+003, 2.864191e+002
1.051334e+003, 2.880673e+002
1.051816e+003, 2.907513e+002
1.052298e+003, 2.956837e+002
1.052780e+003, 2.981656e+002
1.053262e+003, 2.949799e+002
1.053744e+003, 2.917242e+002
1.054226e+003, 2.911953e+002
1.054708e+003, 2.916791e+002
1.055191e+003, 2.914574e+002
1.055673e+003, 2.905852e+002
1.056155e+003, 2.898659e+002
1.056637e+003, 2.895303e+002
1.057119e+003, 2.891308e+002
1.057601e+003, 2.878511e+002
1.058083e+003, 2.872898e+002
1.058565e+003, 2.891185e+002
1.059047e+003, 2.913689e+002
1.059530e+003, 2.920153e+002
1.060012e+003, 2.913004e+002
1.060494e+003, 2.904892e+002
1.060976e+003, 2.897844e+002
1.061458e+003, 2.894796e+002
1.061940e+003, 2.899304e+002
1.062422e+003, 2.905015e+002
1.062904e+003, 2.907445e+002
1.063386e+003, 2.910340e+002
1.063869e+003, 2.922675e+002
1.064351e+003, 2.938125e+002
1.064833e+003, 2.937432e+002
1.065315e+003, 2.913398e+002
1.065797e+003, 2.892143e+002
1.066279e+003, 2.881057e+002
1.066761e+003, 2.879449e+002
1.067243e+003, 2.891581e+002
1.067726e+003, 2.909370e+002
1.068208e+003, 2.931518e+002
1.068690e+003, 2.951182e+002
1.069172e+003, 2.952403e+002
1.069654e+003, 2.929973e+002
1.070136e+003, 2.912405e+002
1.070618e+003, 2.911791e+002
1.071100e+003, 2.919437e+002
1.071583e+003, 2.936683e+002
1.072065e+003, 2.954974e+002
1.072547e+003, 2.965381e+002
1.073029e+003, 2.970839e+002
1.073511e+003, 2.980684e+002
1.073993e+003, 2.996809e+002
1.074475e+003, 3.005754e+002
1.074957e+003, 2.991712e+002
1.075439e+003, 2.981640e+002
1.075922e+003, 2.996406e+002
1.076404e+003, 3.014529e+002
1.076886e+003, 3.014818e+002
1.077368e+003, 3.004787e+002
1.077850e+003, 2.999619e+002
1.078332e+003, 3.002468e+002
1.078814e+003, 3.011006e+002
1.079296e+003, 3.029923e+002
1.079779e+003, 3.046320e+002
1.080261e+003, 3.055835e+002
1.080743e+003, 3.058565e+002
1.081225e+003, 3.047868e+002
1.081707e+003, 3.033702e+002
1.082189e+003, 3.031490e+002
1.082671e+003, 3.042716e+002
1.083153e+003, 3.057190e+002
1.083635e+003, 3.073798e+002
1.084118e+003, 3.087742e+002
1.084600e+003, 3.098829e+002
1.085082e+003, 3.104437e+002
1.085564e+003, 3.099906e+002
1.086046e+003, 3.090293e+002
1.086528e+003, 3.080495e+002
1.087010e+003, 3.072276e+002
1.087492e+003, 3.068256e+002
1.087974e+003, 3.067305e+002
1.088457e+003, 3.075911e+002
1.088939e+003, 3.110347e+002
1.089421e+003, 3.139966e+002
1.089903e+003, 3.141253e+002
1.090385e+003, 3.130251e+002
1.090867e+003, 3.125446e+002
1.091349e+003, 3.126861e+002
1.091831e+003, 3.124599e+002
1.092314e+003, 3.113278e+002
1.092796e+003, 3.109713e+002
1.093278e+003, 3.130442e+002
1.093760e+003, 3.147820e+002
1.094242e+003, 3.144456e+002
1.094724e+003, 3.133591e+002
1.095206e+003, 3.122174e+002
1.095688e+003, 3.115660e+002
1.096171e+003, 3.128133e+002
1.096653e+003, 3.166522e+002
1.097135e+003, 3.189462e+002
1.097617e+003, 3.171431e+002
1.098099e+003, 3.153173e+002
1.098581e+003, 3.150728e+002
1.099063e+003, 3.154265e+002
1.099545e+003, 3.161238e+002
1.100027e+003, 3.166085e+002
1.100510e+003, 3.156057e+002
1.100992e+003, 3.129014e+002
1.101474e+003, 3.113384e+002
1.101956e+003, 3.119598e+002
1.102438e+003, 3.132332e+002
1.102920e+003, 3.165248e+002
1.103402e+003, 3.184759e+002
1.103884e+003, 3.151064e+002
1.104366e+003, 3.102142e+002
1.104849e+003, 3.098324e+002
1.105331e+003, 3.139568e+002
1.105813e+003, 3.161618e+002
1.106295e+003, 3.135929e+002
1.106777e+003, 3.120671e+002
1.107259e+003, 3.131422e+002
1.107741e+003, 3.144781e+002
1.108223e+003, 3.154302e+002
1.108706e+003, 3.158127e+002
1.109188e+003, 3.152538e+002
1.109670e+003, 3.139323e+002
1.110152e+003, 3.127580e+002
1.110634e+003, 3.115294e+002
1.111116e+003, 3.110131e+002
1.111598e+003, 3.115572e+002
1.112080e+003, 3.124041e+002
1.112563e+003, 3.140364e+002
1.113045e+003, 3.152498e+002
1.113527e+003, 3.145789e+002
1.114009e+003, 3.128793e+002
1.114491e+003, 3.126019e+002
1.114973e+003, 3.143709e+002
1.115455e+003, 3.148630e+002
1.115937e+003, 3.131544e+002
1.116419e+003, 3.117643e+002
1.116901e+003, 3.109042e+002
1.117384e+003, 3.108042e+002
1.117866e+003, 3.118829e+002
1.118348e+003, 3.135800e+002
1.118830e+003, 3.150639e+002
1.119312e+003, 3.163424e+002
1.119794e+003, 3.168953e+002
1.120276e+003, 3.163723e+002
1.120758e+003, 3.160328e+002
1.121241e+003, 3.161576e+002
1.121723e+003, 3.160660e+002
1.122205e+003, 3.152556e+002
1.122687e+003, 3.144736e+002
1.123169e+003, 3.148398e+002
1.123651e+003, 3.159593e+002
1.124133e+003, 3.153050e+002
1.124615e+003, 3.122421e+002
1.125098e+003, 3.105435e+002
1.125580e+003, 3.105530e+002
1.126062e+003, 3.111897e+002
1.126544e+003, 3.123179e+002
1.127026e+003, 3.132041e+002
1.127508e+003, 3.131176e+002
1.127990e+003, 3.125964e+002
1.128472e+003, 3.131834e+002
1.128954e+003, 3.149424e+002
1.129437e+003, 3.153073e+002
1.129919e+003, 3.141934e+002
1.130401e+003, 3.127654e+002
1.130883e+003, 3.111451e+002
1.131365e+003, 3.108213e+002
1.131847e+003, 3.128601e+002
1.132329e+003, 3.154405e+002
1.132811e+003, 3.155978e+002
1.133293e+003, 3.140398e+002
1.133776e+003, 3.145207e+002
1.134258e+003, 3.166816e+002
1.134740e+003, 3.168618e+002
1.135222e+003, 3.148240e+002
1.135704e+003, 3.135424e+002
1.136186e+003, 3.142239e+002
1.136668e+003, 3.155193e+002
1.137150e+003, 3.161805e+002
1.137633e+003, 3.164228e+002
1.138115e+003, 3.166866e+002
1.138597e+003, 3.168900e+002
1.139079e+003, 3.166194e+002
1.139561e+003, 3.160368e+002
1.140043e+003, 3.160384e+002
1.140525e+003, 3.167037e+002
1.141007e+003, 3.167224e+002
1.141490e+003, 3.150912e+002
1.141972e+003, 3.137817e+002
1.142454e+003, 3.159452e+002
1.142936e+003, 3.194212e+002
1.143418e+003, 3.210446e+002
1.143900e+003, 3.210737e+002
1.144382e+003, 3.196033e+002
1.144864e+003, 3.172752e+002
1.145346e+003, 3.158624e+002
1.145828e+003, 3.160541e+002
1.146311e+003, 3.169003e+002
1.146793e+003, 3.183102e+002
1.147275e+003, 3.193245e+002
1.147757e+003, 3.183843e+002
1.148239e+003, 3.170753e+002
1.148721e+003, 3.172946e+002
1.149203e+003, 3.186435e+002
1.149685e+003, 3.204744e+002
1.150168e+003, 3.223553e+002
1.150650e+003, 3.227719e+002
1.151132e+003, 3.200467e+002
1.151614e+003, 3.181085e+002
1.152096e+003, 3.198052e+002
1.152578e+003, 3.220577e+002
1.153060e+003, 3.231035e+002
1.153542e+003, 3.232595e+002
1.154025e+003, 3.228606e+002
1.154507e+003, 3.220591e+002
1.154989e+003, 3.210035e+002
1.155471e+003, 3.195446e+002
1.155953e+003, 3.187574e+002
1.156435e+003, 3.193981e+002
1.156917e+003, 3.200471e+002
1.157399e+003, 3.199937e+002
1.157881e+003, 3.200671e+002
1.158364e+003, 3.211721e+002
1.158846e+003, 3.226345e+002
1.159328e+003, 3.233525e+002
1.159810e+003, 3.232766e+002
1.160292e+003, 3.227967e+002
1.160774e+003, 3.210294e+002
1.161256e+003, 3.205164e+002
1.161738e+003, 3.221811e+002
1.162220e+003, 3.237849e+002
1.162703e+003, 3.245179e+002
1.163185e+003, 3.248786e+002
1.163667e+003, 3.253867e+002
1.164149e+003, 3.258695e+002
1.164631e+003, 3.256460e+002
1.165113e+003, 3.244753e+002
1.165595e+003, 3.241796e+002
1.166077e+003, 3.250235e+002
1.166560e+003, 3.256280e+002
1.167042e+003, 3.257761e+002
1.167524e+003, 3.251620e+002
1.168006e+003, 3.233739e+002
1.168488e+003, 3.216959e+002
1.168970e+003, 3.223606e+002
1.169452e+003, 3.246280e+002
1.169934e+003, 3.242715e+002
1.170417e+003, 3.215558e+002
1.170899e+003, 3.204028e+002
1.171381e+003, 3.211227e+002
1.171863e+003, 3.225519e+002
1.172345e+003, 3.242567e+002
1.172827e+003, 3.257805e+002
1.173309e+003, 3.268149e+002
1.173791e+003, 3.271695e+002
1.174273e+003, 3.259529e+002
1.174755e+003, 3.240843e+002
1.175238e+003, 3.240166e+002
1.175720e+003, 3.251412e+002
1.176202e+003, 3.255548e+002
1.176684e+003, 3.250870e+002
1.177166e+003, 3.245454e+002
1.177648e+003, 3.242893e+002
1.178130e+003, 3.245725e+002
1.178612e+003, 3.262823e+002
1.179095e+003, 3.278417e+002
1.179577e+003, 3.270590e+002
1.180059e+003, 3.257040e+002
1.180541e+003, 3.259579e+002
1.181023e+003, 3.273590e+002
1.181505e+003, 3.288355e+002
1.181987e+003, 3.300865e+002
1.182469e+003, 3.310106e+002
1.182952e+003, 3.316317e+002
1.183434e+003, 3.317092e+002
1.183916e+003, 3.311003e+002
1.184398e+003, 3.299530e+002
1.184880e+003, 3.270335e+002
1.185362e+003, 3.247348e+002
1.185844e+003, 3.261818e+002
1.186326e+003, 3.298591e+002
1.186808e+003, 3.318464e+002
1.187291e+003, 3.315775e+002
1.187773e+003, 3.312709e+002
1.188255e+003, 3.309885e+002
1.188737e+003, 3.309079e+002
1.189219e+003, 3.307215e+002
1.189701e+003, 3.312297e+002
1.190183e+003, 3.333259e+002
1.190665e+003, 3.356418e+002
1.191147e+003, 3.367371e+002
1.191630e+003, 3.367883e+002
1.192112e+003, 3.364421e+002
1.192594e+003, 3.355576e+002
1.193076e+003, 3.349950e+002
1.193558e+003, 3.347758e+002
1.194040e+003, 3.347252e+002
1.194522e+003, 3.347534e+002
1.195004e+003, 3.353816e+002
1.195487e+003, 3.370635e+002
1.195969e+003, 3.387524e+002
1.196451e+003, 3.388945e+002
1.196933e+003, 3.379171e+002
1.197415e+003, 3.372064e+002
1.197897e+003, 3.368500e+002
1.198379e+003, 3.375891e+002
1.198861e+003, 3.392911e+002
1.199344e+003, 3.408611e+002
1.199826e+003, 3.419510e+002
1.200308e+003, 3.424897e+002
1.200790e+003, 3.423122e+002
1.201272e+003, 3.423590e+002
1.201754e+003, 3.445278e+002
1.202236e+003, 3.469905e+002
1.202718e+003, 3.464584e+002
1.203200e+003, 3.447327e+002
1.203682e+003, 3.449559e+002
1.204165e+003, 3.469480e+002
1.204647e+003, 3.491270e+002
1.205129e+003, 3.509939e+002
1.205611e+003, 3.526303e+002
1.206093e+003, 3.544044e+002
1.206575e+003, 3.553853e+002
1.207057e+003, 3.547675e+002
1.207539e+003, 3.535528e+002
1.208022e+003, 3.510811e+002
1.208504e+003, 3.493944e+002
1.208986e+003, 3.520368e+002
1.209468e+003, 3.575194e+002
1.209950e+003, 3.599224e+002
1.210432e+003, 3.576868e+002
1.210914e+003, 3.562167e+002
1.211396e+003, 3.563550e+002
1.211879e+003, 3.565291e+002
1.212361e+003, 3.556938e+002
1.212843e+003, 3.563378e+002
1.213325e+003, 3.612060e+002
1.213807e+003, 3.659443e+002
1.214289e+003, 3.644878e+002
1.214771e+003, 3.587170e+002
1.215253e+003, 3.583004e+002
1.215735e+003, 3.641241e+002
1.216218e+003, 3.669567e+002
1.216700e+003, 3.663766e+002
1.217182e+003, 3.656323e+002
1.217664e+003, 3.654462e+002
1.218146e+003, 3.663135e+002
1.218628e+003, 3.686048e+002
1.219110e+003, 3.712106e+002
1.219592e+003, 3.729206e+002
1.220074e+003, 3.736082e+002
1.220557e+003, 3.722703e+002
1.221039e+003, 3.698823e+002
1.221521e+003, 3.688548e+002
1.222003e+003, 3.692253e+002
1.222485e+003, 3.707697e+002
1.222967e+003, 3.730823e+002
1.223449e+003, 3.747116e+002
1.223931e+003, 3.748935e+002
1.224414e+003, 3.740946e+002
1.224896e+003, 3.711557e+002
1.225378e+003, 3.690996e+002
1.225860e+003, 3.715376e+002
1.226342e+003, 3.751588e+002
1.226824e+003, 3.762408e+002
1.227306e+003, 3.758045e+002
1.227788e+003, 3.767267e+002
1.228271e+003, 3.792407e+002
1.228753e+003, 3.803986e+002
1.229235e+003, 3.776786e+002
1.229717e+003, 3.770492e+002
1.230199e+003, 3.818052e+002
1.230681e+003, 3.853253e+002
1.231163e+003, 3.845758e+002
1.231645e+003, 3.831906e+002
1.232127e+003, 3.840241e+002
1.232609e+003, 3.857775e+002
1.233092e+003, 3.856796e+002
1.233574e+003, 3.838136e+002
1.234056e+003, 3.843920e+002
1.234538e+003, 3.878300e+002
1.235020e+003, 3.900022e+002
1.235502e+003, 3.904131e+002
1.235984e+003, 3.912787e+002
1.236466e+003, 3.933681e+002
1.236949e+003, 3.952670e+002
1.237431e+003, 3.958102e+002
1.237913e+003, 3.958916e+002
1.238395e+003, 3.973282e+002
1.238877e+003, 3.992023e+002
1.239359e+003, 3.990714e+002
1.239841e+003, 3.976909e+002
1.240323e+003, 3.965502e+002
1.240806e+003, 3.959930e+002
1.241288e+003, 3.964484e+002
1.241770e+003, 3.978877e+002
1.242252e+003, 3.991638e+002
1.242734e+003, 3.995788e+002
1.243216e+003, 3.998542e+002
1.243698e+003, 4.004312e+002
1.244180e+003, 4.010601e+002
1.244662e+003, 4.018601e+002
1.245145e+003, 4.023700e+002
1.245627e+003, 4.018518e+002
1.246109e+003, 4.007674e+002
1.246591e+003, 3.999009e+002
1.247073e+003, 3.992632e+002
1.247555e+003, 4.003754e+002
1.248037e+003, 4.053357e+002
1.248519e+003, 4.080832e+002
1.249001e+003, 4.070923e+002
1.249484e+003, 4.065146e+002
1.249966e+003, 4.077962e+002
1.250448e+003, 4.096635e+002
1.250930e+003, 4.112166e+002
1.251412e+003, 4.124928e+002
1.251894e+003, 4.135891e+002
1.252376e+003, 4.144749e+002
1.252858e+003, 4.147820e+002
1.253341e+003, 4.145842e+002
1.253823e+003, 4.142143e+002
1.254305e+003, 4.139203e+002
1.254787e+003, 4.156887e+002
1.255269e+003, 4.197488e+002
1.255751e+003, 4.221494e+002
1.256233e+003, 4.200147e+002
1.256715e+003, 4.170202e+002
1.257198e+003, 4.170107e+002
1.257680e+003, 4.183392e+002
1.258162e+003, 4.195620e+002
1.258644e+003, 4.206581e+002
1.259126e+003, 4.211905e+002
1.259608e+003, 4.218336e+002
1.260090e+003, 4.247007e+002
1.260572e+003, 4.295943e+002
1.261054e+003, 4.317690e+002
1.261536e+003, 4.277013e+002
1.262019e+003, 4.259166e+002
1.262501e+003, 4.302271e+002
1.262983e+003, 4.340143e+002
1.263465e+003, 4.352118e+002
1.263947e+003, 4.353211e+002
1.264429e+003, 4.349721e+002
1.264911e+003, 4.343954e+002
1.265393e+003, 4.339563e+002
1.265876e+003, 4.336052e+002
1.266358e+003, 4.328121e+002
1.266840e+003, 4.314958e+002
1.267322e+003, 4.315132e+002
1.267804e+003, 4.329361e+002
1.268286e+003, 4.347071e+002
1.268768e+003, 4.365214e+002
1.269250e+003, 4.374490e+002
1.269733e+003, 4.369675e+002
1.270215e+003, 4.363067e+002
1.270697e+003, 4.368734e+002
1.271179e+003, 4.379133e+002
1.271661e+003, 4.383692e+002
1.272143e+003, 4.385795e+002
1.272625e+003, 4.387910e+002
1.273107e+003, 4.392539e+002
1.273589e+003, 4.403824e+002
1.274072e+003, 4.421202e+002
1.274554e+003, 4.443546e+002
1.275036e+003, 4.472869e+002
1.275518e+003, 4.486255e+002
1.276000e+003, 4.463323e+002
1.276482e+003, 4.442709e+002
1.276964e+003, 4.436774e+002
1.277446e+003, 4.433497e+002
1.277929e+003, 4.419180e+002
1.278411e+003, 4.412353e+002
1.278893e+003, 4.433546e+002
1.279375e+003, 4.473691e+002
1.279857e+003, 4.509678e+002
1.280339e+003, 4.541608e+002
1.280821e+003, 4.563359e+002
1.281303e+003, 4.575567e+002
1.281786e+003, 4.576481e+002
1.282268e+003, 4.565621e+002
##END=



