##NAMES=Raguinite
##RRUFFID=R130617
##IDEAL CHEMISTRY=TlFeS_2_
##LOCALITY=Allchar, Roszdan, Republic of Macedonia
##OWNER=RRUFF
##SOURCE=Mark N. Feinglos
##DESCRIPTION=Black granular crystals, associated with dolomite, realgar, and lorandite.
##STATUS=The identification of this mineral has been confirmed only by single crystal X-ray diffraction.
##URL=rruff.info/R130617
8.813672e+001, 2.682725e+002
8.861884e+001, 2.715528e+002
8.910095e+001, 2.748838e+002
8.958307e+001, 2.790522e+002
9.006519e+001, 2.842156e+002
9.054730e+001, 2.902531e+002
9.102942e+001, 2.983009e+002
9.151154e+001, 3.053008e+002
9.199365e+001, 3.066726e+002
9.247577e+001, 3.034313e+002
9.295789e+001, 3.005377e+002
9.344000e+001, 3.025168e+002
9.392212e+001, 3.074251e+002
9.440424e+001, 3.102648e+002
9.488635e+001, 3.099824e+002
9.536847e+001, 3.079847e+002
9.585059e+001, 3.068694e+002
9.633270e+001, 3.065869e+002
9.681482e+001, 3.070730e+002
9.729694e+001, 3.080513e+002
9.777905e+001, 3.095197e+002
9.826117e+001, 3.124670e+002
9.874329e+001, 3.178517e+002
9.922540e+001, 3.251098e+002
9.970752e+001, 3.300692e+002
1.001896e+002, 3.321400e+002
1.006718e+002, 3.330953e+002
1.011539e+002, 3.350296e+002
1.016360e+002, 3.380652e+002
1.021181e+002, 3.416357e+002
1.026002e+002, 3.455213e+002
1.030823e+002, 3.496732e+002
1.035645e+002, 3.543072e+002
1.040466e+002, 3.591271e+002
1.045287e+002, 3.646260e+002
1.050108e+002, 3.720157e+002
1.054929e+002, 3.822608e+002
1.059750e+002, 3.929339e+002
1.064572e+002, 4.033931e+002
1.069393e+002, 4.158092e+002
1.074214e+002, 4.241640e+002
1.079035e+002, 4.266803e+002
1.083856e+002, 4.250016e+002
1.088677e+002, 4.247352e+002
1.093499e+002, 4.260849e+002
1.098320e+002, 4.287040e+002
1.103141e+002, 4.324352e+002
1.107962e+002, 4.378989e+002
1.112783e+002, 4.438377e+002
1.117604e+002, 4.502985e+002
1.122426e+002, 4.572914e+002
1.127247e+002, 4.644307e+002
1.132068e+002, 4.712607e+002
1.136889e+002, 4.784590e+002
1.141710e+002, 4.864255e+002
1.146531e+002, 4.983144e+002
1.151353e+002, 5.080589e+002
1.156174e+002, 5.131185e+002
1.160995e+002, 5.134441e+002
1.165816e+002, 5.138134e+002
1.170637e+002, 5.165845e+002
1.175458e+002, 5.201121e+002
1.180280e+002, 5.226441e+002
1.185101e+002, 5.221972e+002
1.189922e+002, 5.214435e+002
1.194743e+002, 5.218101e+002
1.199564e+002, 5.234017e+002
1.204385e+002, 5.259648e+002
1.209207e+002, 5.291066e+002
1.214028e+002, 5.331288e+002
1.218849e+002, 5.385374e+002
1.223670e+002, 5.484747e+002
1.228491e+002, 5.587043e+002
1.233312e+002, 5.642944e+002
1.238134e+002, 5.639918e+002
1.242955e+002, 5.617794e+002
1.247776e+002, 5.607733e+002
1.252597e+002, 5.608124e+002
1.257418e+002, 5.613422e+002
1.262239e+002, 5.615555e+002
1.267061e+002, 5.621122e+002
1.271882e+002, 5.643552e+002
1.276703e+002, 5.688261e+002
1.281524e+002, 5.744600e+002
1.286345e+002, 5.798410e+002
1.291166e+002, 5.850093e+002
1.295988e+002, 5.903976e+002
1.300809e+002, 5.973965e+002
1.305630e+002, 6.052081e+002
1.310451e+002, 6.102414e+002
1.315272e+002, 6.107581e+002
1.320093e+002, 6.087817e+002
1.324915e+002, 6.089661e+002
1.329736e+002, 6.114368e+002
1.334557e+002, 6.149293e+002
1.339378e+002, 6.186184e+002
1.344199e+002, 6.224904e+002
1.349020e+002, 6.258373e+002
1.353842e+002, 6.282951e+002
1.358663e+002, 6.300175e+002
1.363484e+002, 6.318109e+002
1.368305e+002, 6.333429e+002
1.373126e+002, 6.358740e+002
1.377947e+002, 6.417546e+002
1.382769e+002, 6.521234e+002
1.387590e+002, 6.600176e+002
1.392411e+002, 6.631254e+002
1.397232e+002, 6.613829e+002
1.402053e+002, 6.589085e+002
1.406874e+002, 6.554183e+002
1.411696e+002, 6.515474e+002
1.416517e+002, 6.482184e+002
1.421338e+002, 6.456493e+002
1.426159e+002, 6.431376e+002
1.430980e+002, 6.402530e+002
1.435801e+002, 6.366789e+002
1.440623e+002, 6.346176e+002
1.445444e+002, 6.346989e+002
1.450265e+002, 6.359879e+002
1.455086e+002, 6.369020e+002
1.459907e+002, 6.372686e+002
1.464728e+002, 6.375478e+002
1.469550e+002, 6.378729e+002
1.474371e+002, 6.381932e+002
1.479192e+002, 6.386910e+002
1.484013e+002, 6.392565e+002
1.488834e+002, 6.400064e+002
1.493655e+002, 6.412268e+002
1.498477e+002, 6.435770e+002
1.503298e+002, 6.458184e+002
1.508119e+002, 6.475477e+002
1.512940e+002, 6.493924e+002
1.517761e+002, 6.498049e+002
1.522583e+002, 6.476996e+002
1.527404e+002, 6.439816e+002
1.532225e+002, 6.411918e+002
1.537046e+002, 6.403790e+002
1.541867e+002, 6.399501e+002
1.546688e+002, 6.391989e+002
1.551510e+002, 6.382396e+002
1.556331e+002, 6.367052e+002
1.561152e+002, 6.340666e+002
1.565973e+002, 6.306640e+002
1.570794e+002, 6.278904e+002
1.575615e+002, 6.260008e+002
1.580437e+002, 6.248351e+002
1.585258e+002, 6.242900e+002
1.590079e+002, 6.246773e+002
1.594900e+002, 6.253373e+002
1.599721e+002, 6.260596e+002
1.604542e+002, 6.268822e+002
1.609364e+002, 6.280213e+002
1.614185e+002, 6.300134e+002
1.619006e+002, 6.321346e+002
1.623827e+002, 6.338011e+002
1.628648e+002, 6.347324e+002
1.633469e+002, 6.352687e+002
1.638291e+002, 6.353802e+002
1.643112e+002, 6.351127e+002
1.647933e+002, 6.349399e+002
1.652754e+002, 6.349659e+002
1.657575e+002, 6.352471e+002
1.662396e+002, 6.358437e+002
1.667218e+002, 6.366376e+002
1.672039e+002, 6.378548e+002
1.676860e+002, 6.398167e+002
1.681681e+002, 6.424894e+002
1.686502e+002, 6.452469e+002
1.691323e+002, 6.477620e+002
1.696145e+002, 6.500828e+002
1.700966e+002, 6.522576e+002
1.705787e+002, 6.549677e+002
1.710608e+002, 6.571468e+002
1.715429e+002, 6.575787e+002
1.720250e+002, 6.561820e+002
1.725072e+002, 6.544342e+002
1.729893e+002, 6.533613e+002
1.734714e+002, 6.527286e+002
1.739535e+002, 6.521000e+002
1.744356e+002, 6.512113e+002
1.749177e+002, 6.502585e+002
1.753999e+002, 6.490540e+002
1.758820e+002, 6.474568e+002
1.763641e+002, 6.469534e+002
1.768462e+002, 6.496660e+002
1.773283e+002, 6.546250e+002
1.778104e+002, 6.593574e+002
1.782926e+002, 6.625387e+002
1.787747e+002, 6.647371e+002
1.792568e+002, 6.667390e+002
1.797389e+002, 6.685168e+002
1.802210e+002, 6.703365e+002
1.807031e+002, 6.723634e+002
1.811853e+002, 6.746171e+002
1.816674e+002, 6.771423e+002
1.821495e+002, 6.803490e+002
1.826316e+002, 6.838220e+002
1.831137e+002, 6.864323e+002
1.835958e+002, 6.880714e+002
1.840780e+002, 6.891848e+002
1.845601e+002, 6.904931e+002
1.850422e+002, 6.918945e+002
1.855243e+002, 6.928037e+002
1.860064e+002, 6.931504e+002
1.864885e+002, 6.928066e+002
1.869707e+002, 6.911007e+002
1.874528e+002, 6.877844e+002
1.879349e+002, 6.836847e+002
1.884170e+002, 6.798845e+002
1.888991e+002, 6.763774e+002
1.893812e+002, 6.730765e+002
1.898634e+002, 6.698461e+002
1.903455e+002, 6.667304e+002
1.908276e+002, 6.639841e+002
1.913097e+002, 6.616413e+002
1.917918e+002, 6.595411e+002
1.922739e+002, 6.572957e+002
1.927561e+002, 6.548502e+002
1.932382e+002, 6.527546e+002
1.937203e+002, 6.512491e+002
1.942024e+002, 6.503264e+002
1.946845e+002, 6.500309e+002
1.951666e+002, 6.505740e+002
1.956488e+002, 6.514182e+002
1.961309e+002, 6.514609e+002
1.966130e+002, 6.506276e+002
1.970951e+002, 6.496083e+002
1.975772e+002, 6.486569e+002
1.980593e+002, 6.477725e+002
1.985415e+002, 6.473578e+002
1.990236e+002, 6.475956e+002
1.995057e+002, 6.481345e+002
1.999878e+002, 6.482474e+002
2.004699e+002, 6.479426e+002
2.009520e+002, 6.471732e+002
2.014342e+002, 6.459255e+002
2.019163e+002, 6.441961e+002
2.023984e+002, 6.418656e+002
2.028805e+002, 6.386329e+002
2.033626e+002, 6.350500e+002
2.038447e+002, 6.325764e+002
2.043269e+002, 6.314127e+002
2.048090e+002, 6.306251e+002
2.052911e+002, 6.294464e+002
2.057732e+002, 6.276034e+002
2.062553e+002, 6.272695e+002
2.067374e+002, 6.289773e+002
2.072196e+002, 6.320150e+002
2.077017e+002, 6.344084e+002
2.081838e+002, 6.359451e+002
2.086659e+002, 6.374381e+002
2.091480e+002, 6.392297e+002
2.096301e+002, 6.412728e+002
2.101123e+002, 6.439926e+002
2.105944e+002, 6.476865e+002
2.110765e+002, 6.519527e+002
2.115586e+002, 6.555496e+002
2.120407e+002, 6.581688e+002
2.125228e+002, 6.608331e+002
2.130050e+002, 6.641122e+002
2.134871e+002, 6.681281e+002
2.139692e+002, 6.722302e+002
2.144513e+002, 6.763559e+002
2.149334e+002, 6.805375e+002
2.154155e+002, 6.850439e+002
2.158977e+002, 6.900120e+002
2.163798e+002, 6.950342e+002
2.168619e+002, 6.998273e+002
2.173440e+002, 7.042455e+002
2.178261e+002, 7.088819e+002
2.183082e+002, 7.140127e+002
2.187904e+002, 7.192606e+002
2.192725e+002, 7.233641e+002
2.197546e+002, 7.259219e+002
2.202367e+002, 7.279842e+002
2.207188e+002, 7.297842e+002
2.212009e+002, 7.305946e+002
2.216831e+002, 7.331828e+002
2.221652e+002, 7.377381e+002
2.226473e+002, 7.441137e+002
2.231294e+002, 7.516721e+002
2.236115e+002, 7.603397e+002
2.240936e+002, 7.704404e+002
2.245758e+002, 7.824291e+002
2.250579e+002, 7.969459e+002
2.255400e+002, 8.117051e+002
2.260221e+002, 8.268670e+002
2.265042e+002, 8.422491e+002
2.269863e+002, 8.574020e+002
2.274685e+002, 8.748681e+002
2.279506e+002, 8.884153e+002
2.284327e+002, 8.950331e+002
2.289148e+002, 8.929218e+002
2.293969e+002, 8.879580e+002
2.298790e+002, 8.793115e+002
2.303612e+002, 8.680743e+002
2.308433e+002, 8.569866e+002
2.313254e+002, 8.458896e+002
2.318075e+002, 8.349638e+002
2.322896e+002, 8.243685e+002
2.327717e+002, 8.145944e+002
2.332539e+002, 8.040192e+002
2.337360e+002, 7.931943e+002
2.342181e+002, 7.815560e+002
2.347002e+002, 7.674034e+002
2.351823e+002, 7.491644e+002
2.356644e+002, 7.309159e+002
2.361466e+002, 7.142471e+002
2.366287e+002, 6.996219e+002
2.371108e+002, 6.853080e+002
2.375929e+002, 6.711072e+002
2.380750e+002, 6.575038e+002
2.385571e+002, 6.456031e+002
2.390393e+002, 6.354700e+002
2.395214e+002, 6.269584e+002
2.400035e+002, 6.202566e+002
2.404856e+002, 6.159348e+002
2.409677e+002, 6.114728e+002
2.414498e+002, 6.064015e+002
2.419320e+002, 6.014613e+002
2.424141e+002, 5.979683e+002
2.428962e+002, 5.966580e+002
2.433783e+002, 5.956260e+002
2.438604e+002, 5.942687e+002
2.443425e+002, 5.925098e+002
2.448247e+002, 5.906972e+002
2.453068e+002, 5.885731e+002
2.457889e+002, 5.865648e+002
2.462710e+002, 5.853508e+002
2.467531e+002, 5.852390e+002
2.472352e+002, 5.853865e+002
2.477174e+002, 5.855855e+002
2.481995e+002, 5.858566e+002
2.486816e+002, 5.860163e+002
2.491637e+002, 5.859590e+002
2.496458e+002, 5.858571e+002
2.501279e+002, 5.859906e+002
2.506101e+002, 5.865561e+002
2.510922e+002, 5.869753e+002
2.515743e+002, 5.870746e+002
2.520564e+002, 5.868243e+002
2.525385e+002, 5.864442e+002
2.530206e+002, 5.857592e+002
2.535028e+002, 5.851022e+002
2.539849e+002, 5.848497e+002
2.544670e+002, 5.849274e+002
2.549491e+002, 5.855837e+002
2.554312e+002, 5.871487e+002
2.559133e+002, 5.897064e+002
2.563955e+002, 5.913931e+002
2.568776e+002, 5.919340e+002
2.573597e+002, 5.919107e+002
2.578418e+002, 5.919162e+002
2.583239e+002, 5.919817e+002
2.588061e+002, 5.919650e+002
2.592882e+002, 5.916791e+002
2.597703e+002, 5.911378e+002
2.602524e+002, 5.913858e+002
2.607345e+002, 5.926886e+002
2.612166e+002, 5.944077e+002
2.616988e+002, 5.960284e+002
2.621809e+002, 5.975033e+002
2.626630e+002, 5.989297e+002
2.631451e+002, 6.002731e+002
2.636272e+002, 6.015677e+002
2.641093e+002, 6.029037e+002
2.645915e+002, 6.040706e+002
2.650736e+002, 6.056795e+002
2.655557e+002, 6.084954e+002
2.660378e+002, 6.129975e+002
2.665199e+002, 6.168322e+002
2.670020e+002, 6.195403e+002
2.674842e+002, 6.213265e+002
2.679663e+002, 6.229811e+002
2.684484e+002, 6.243232e+002
2.689305e+002, 6.259296e+002
2.694126e+002, 6.284499e+002
2.698947e+002, 6.323699e+002
2.703769e+002, 6.351962e+002
2.708590e+002, 6.367159e+002
2.713411e+002, 6.370006e+002
2.718232e+002, 6.361559e+002
2.723053e+002, 6.340632e+002
2.727874e+002, 6.312074e+002
2.732696e+002, 6.276776e+002
2.737517e+002, 6.233553e+002
2.742338e+002, 6.191024e+002
2.747159e+002, 6.148974e+002
2.751980e+002, 6.108270e+002
2.756801e+002, 6.070667e+002
2.761623e+002, 6.035158e+002
2.766444e+002, 6.007457e+002
2.771265e+002, 5.993041e+002
2.776086e+002, 5.992940e+002
2.780907e+002, 5.990303e+002
2.785728e+002, 5.984128e+002
2.790550e+002, 5.976213e+002
2.795371e+002, 5.968409e+002
2.800192e+002, 5.960193e+002
2.805013e+002, 5.956293e+002
2.809834e+002, 5.959374e+002
2.814655e+002, 5.969297e+002
2.819477e+002, 5.983464e+002
2.824298e+002, 6.004070e+002
2.829119e+002, 6.022585e+002
2.833940e+002, 6.022924e+002
2.838761e+002, 6.004470e+002
2.843582e+002, 5.990885e+002
2.848404e+002, 5.992597e+002
2.853225e+002, 6.007178e+002
2.858046e+002, 6.021093e+002
2.862867e+002, 6.034343e+002
2.867688e+002, 6.046075e+002
2.872509e+002, 6.054883e+002
2.877331e+002, 6.060925e+002
2.882152e+002, 6.066367e+002
2.886973e+002, 6.072740e+002
2.891794e+002, 6.078906e+002
2.896615e+002, 6.079472e+002
2.901436e+002, 6.074004e+002
2.906258e+002, 6.069231e+002
2.911079e+002, 6.072800e+002
2.915900e+002, 6.083245e+002
2.920721e+002, 6.092303e+002
2.925542e+002, 6.097705e+002
2.930363e+002, 6.100773e+002
2.935185e+002, 6.102777e+002
2.940006e+002, 6.103844e+002
2.944827e+002, 6.107330e+002
2.949648e+002, 6.118106e+002
2.954469e+002, 6.133723e+002
2.959290e+002, 6.145092e+002
2.964112e+002, 6.147667e+002
2.968933e+002, 6.150315e+002
2.973754e+002, 6.170131e+002
2.978575e+002, 6.204349e+002
2.983396e+002, 6.236876e+002
2.988217e+002, 6.254828e+002
2.993039e+002, 6.263756e+002
2.997860e+002, 6.274207e+002
3.002681e+002, 6.287902e+002
3.007502e+002, 6.302338e+002
3.012323e+002, 6.314343e+002
3.017144e+002, 6.324547e+002
3.021966e+002, 6.334490e+002
3.026787e+002, 6.343974e+002
3.031608e+002, 6.354241e+002
3.036429e+002, 6.368017e+002
3.041250e+002, 6.385857e+002
3.046071e+002, 6.403762e+002
3.050893e+002, 6.416362e+002
3.055714e+002, 6.426303e+002
3.060535e+002, 6.438615e+002
3.065356e+002, 6.458875e+002
3.070177e+002, 6.480756e+002
3.074998e+002, 6.497769e+002
3.079820e+002, 6.509886e+002
3.084641e+002, 6.520145e+002
3.089462e+002, 6.530283e+002
3.094283e+002, 6.540146e+002
3.099104e+002, 6.549395e+002
3.103925e+002, 6.557763e+002
3.108747e+002, 6.565635e+002
3.113568e+002, 6.571496e+002
3.118389e+002, 6.576068e+002
3.123210e+002, 6.584396e+002
3.128031e+002, 6.605409e+002
3.132852e+002, 6.628870e+002
3.137674e+002, 6.644435e+002
3.142495e+002, 6.641020e+002
3.147316e+002, 6.639718e+002
3.152137e+002, 6.653568e+002
3.156958e+002, 6.678584e+002
3.161779e+002, 6.701429e+002
3.166601e+002, 6.710723e+002
3.171422e+002, 6.719623e+002
3.176243e+002, 6.737675e+002
3.181064e+002, 6.771490e+002
3.185885e+002, 6.803478e+002
3.190706e+002, 6.826906e+002
3.195528e+002, 6.844431e+002
3.200349e+002, 6.861253e+002
3.205170e+002, 6.873642e+002
3.209991e+002, 6.889863e+002
3.214812e+002, 6.913361e+002
3.219633e+002, 6.944971e+002
3.224455e+002, 6.982316e+002
3.229276e+002, 7.027452e+002
3.234097e+002, 7.077467e+002
3.238918e+002, 7.128785e+002
3.243739e+002, 7.185506e+002
3.248560e+002, 7.239026e+002
3.253382e+002, 7.283832e+002
3.258203e+002, 7.318165e+002
3.263024e+002, 7.362478e+002
3.267845e+002, 7.429156e+002
3.272666e+002, 7.500804e+002
3.277487e+002, 7.563866e+002
3.282309e+002, 7.615514e+002
3.287130e+002, 7.660881e+002
3.291951e+002, 7.696980e+002
3.296772e+002, 7.725130e+002
3.301593e+002, 7.759327e+002
3.306414e+002, 7.811052e+002
3.311236e+002, 7.857409e+002
3.316057e+002, 7.884460e+002
3.320878e+002, 7.872108e+002
3.325699e+002, 7.877247e+002
3.330520e+002, 7.911290e+002
3.335341e+002, 7.961974e+002
3.340163e+002, 7.993450e+002
3.344984e+002, 7.992756e+002
3.349805e+002, 7.993952e+002
3.354626e+002, 8.012687e+002
3.359447e+002, 8.055176e+002
3.364268e+002, 8.091573e+002
3.369090e+002, 8.120949e+002
3.373911e+002, 8.145775e+002
3.378732e+002, 8.169739e+002
3.383553e+002, 8.193409e+002
3.388374e+002, 8.214332e+002
3.393195e+002, 8.230654e+002
3.398017e+002, 8.242594e+002
3.402838e+002, 8.260969e+002
3.407659e+002, 8.289344e+002
3.412480e+002, 8.315438e+002
3.417301e+002, 8.326143e+002
3.422122e+002, 8.320701e+002
3.426944e+002, 8.309749e+002
3.431765e+002, 8.295148e+002
3.436586e+002, 8.276882e+002
3.441407e+002, 8.256208e+002
3.446228e+002, 8.233469e+002
3.451049e+002, 8.205208e+002
3.455871e+002, 8.168409e+002
3.460692e+002, 8.123196e+002
3.465513e+002, 8.074301e+002
3.470334e+002, 8.021985e+002
3.475155e+002, 7.966469e+002
3.479977e+002, 7.908566e+002
3.484798e+002, 7.847997e+002
3.489619e+002, 7.786825e+002
3.494440e+002, 7.723300e+002
3.499261e+002, 7.660236e+002
3.504082e+002, 7.604650e+002
3.508904e+002, 7.557454e+002
3.513725e+002, 7.514769e+002
3.518546e+002, 7.471458e+002
3.523367e+002, 7.429045e+002
3.528188e+002, 7.391006e+002
3.533009e+002, 7.360310e+002
3.537831e+002, 7.333991e+002
3.542652e+002, 7.307496e+002
3.547473e+002, 7.281041e+002
3.552294e+002, 7.259523e+002
3.557115e+002, 7.249525e+002
3.561936e+002, 7.245693e+002
3.566758e+002, 7.240886e+002
3.571579e+002, 7.231015e+002
3.576400e+002, 7.222078e+002
3.581221e+002, 7.219382e+002
3.586042e+002, 7.221562e+002
3.590863e+002, 7.223515e+002
3.595685e+002, 7.224446e+002
3.600506e+002, 7.223182e+002
3.605327e+002, 7.219780e+002
3.610148e+002, 7.216304e+002
3.614969e+002, 7.205215e+002
3.619790e+002, 7.179483e+002
3.624612e+002, 7.144715e+002
3.629433e+002, 7.109938e+002
3.634254e+002, 7.078988e+002
3.639075e+002, 7.047516e+002
3.643896e+002, 7.012704e+002
3.648717e+002, 6.973538e+002
3.653539e+002, 6.937253e+002
3.658360e+002, 6.906251e+002
3.663181e+002, 6.878356e+002
3.668002e+002, 6.850807e+002
3.672823e+002, 6.819880e+002
3.677644e+002, 6.792965e+002
3.682466e+002, 6.774595e+002
3.687287e+002, 6.763427e+002
3.692108e+002, 6.745136e+002
3.696929e+002, 6.715404e+002
3.701750e+002, 6.682136e+002
3.706571e+002, 6.649438e+002
3.711393e+002, 6.616076e+002
3.716214e+002, 6.585051e+002
3.721035e+002, 6.556191e+002
3.725856e+002, 6.529532e+002
3.730677e+002, 6.505927e+002
3.735498e+002, 6.486852e+002
3.740320e+002, 6.467675e+002
3.745141e+002, 6.446126e+002
3.749962e+002, 6.421565e+002
3.754783e+002, 6.401467e+002
3.759604e+002, 6.387283e+002
3.764425e+002, 6.375546e+002
3.769247e+002, 6.361602e+002
3.774068e+002, 6.344789e+002
3.778889e+002, 6.330597e+002
3.783710e+002, 6.320834e+002
3.788531e+002, 6.314753e+002
3.793352e+002, 6.309572e+002
3.798174e+002, 6.305502e+002
3.802995e+002, 6.301113e+002
3.807816e+002, 6.295377e+002
3.812637e+002, 6.288329e+002
3.817458e+002, 6.281223e+002
3.822279e+002, 6.274994e+002
3.827101e+002, 6.266961e+002
3.831922e+002, 6.250677e+002
3.836743e+002, 6.227205e+002
3.841564e+002, 6.204912e+002
3.846385e+002, 6.188137e+002
3.851206e+002, 6.175555e+002
3.856028e+002, 6.165038e+002
3.860849e+002, 6.156671e+002
3.865670e+002, 6.148347e+002
3.870491e+002, 6.138009e+002
3.875312e+002, 6.126205e+002
3.880133e+002, 6.113926e+002
3.884955e+002, 6.101188e+002
3.889776e+002, 6.088369e+002
3.894597e+002, 6.075443e+002
3.899418e+002, 6.062608e+002
3.904239e+002, 6.051168e+002
3.909060e+002, 6.040025e+002
3.913882e+002, 6.031586e+002
3.918703e+002, 6.029293e+002
3.923524e+002, 6.038202e+002
3.928345e+002, 6.043914e+002
3.933166e+002, 6.035731e+002
3.937987e+002, 6.019581e+002
3.942809e+002, 6.007502e+002
3.947630e+002, 6.004571e+002
3.952451e+002, 6.005447e+002
3.957272e+002, 6.007918e+002
3.962093e+002, 6.011655e+002
3.966914e+002, 6.017803e+002
3.971736e+002, 6.033895e+002
3.976557e+002, 6.048969e+002
3.981378e+002, 6.052952e+002
3.986199e+002, 6.035355e+002
3.991020e+002, 6.017066e+002
3.995841e+002, 5.998591e+002
4.000663e+002, 5.980623e+002
4.005484e+002, 5.967906e+002
4.010305e+002, 5.961053e+002
4.015126e+002, 5.958825e+002
4.019947e+002, 5.962307e+002
4.024768e+002, 5.979252e+002
4.029590e+002, 5.982559e+002
4.034411e+002, 5.965721e+002
4.039232e+002, 5.940240e+002
4.044053e+002, 5.927205e+002
4.048874e+002, 5.930613e+002
4.053695e+002, 5.934620e+002
4.058517e+002, 5.933701e+002
4.063338e+002, 5.928419e+002
4.068159e+002, 5.926691e+002
4.072980e+002, 5.929052e+002
4.077801e+002, 5.933243e+002
4.082622e+002, 5.939086e+002
4.087444e+002, 5.946287e+002
4.092265e+002, 5.946214e+002
4.097086e+002, 5.933893e+002
4.101907e+002, 5.917658e+002
4.106728e+002, 5.916863e+002
4.111549e+002, 5.930093e+002
4.116371e+002, 5.942470e+002
4.121192e+002, 5.943488e+002
4.126013e+002, 5.937153e+002
4.130834e+002, 5.930916e+002
4.135655e+002, 5.924894e+002
4.140476e+002, 5.922148e+002
4.145298e+002, 5.927888e+002
4.150119e+002, 5.938907e+002
4.154940e+002, 5.949002e+002
4.159761e+002, 5.960030e+002
4.164582e+002, 5.965717e+002
4.169403e+002, 5.954971e+002
4.174225e+002, 5.930966e+002
4.179046e+002, 5.913218e+002
4.183867e+002, 5.921267e+002
4.188688e+002, 5.936094e+002
4.193509e+002, 5.941223e+002
4.198330e+002, 5.929073e+002
4.203152e+002, 5.916681e+002
4.207973e+002, 5.909166e+002
4.212794e+002, 5.905974e+002
4.217615e+002, 5.905961e+002
4.222436e+002, 5.915924e+002
4.227257e+002, 5.922490e+002
4.232079e+002, 5.919628e+002
4.236900e+002, 5.905682e+002
4.241721e+002, 5.894014e+002
4.246542e+002, 5.881939e+002
4.251363e+002, 5.874738e+002
4.256184e+002, 5.876382e+002
4.261006e+002, 5.891368e+002
4.265827e+002, 5.908596e+002
4.270648e+002, 5.931265e+002
4.275469e+002, 5.955362e+002
4.280290e+002, 5.965377e+002
4.285111e+002, 5.955788e+002
4.289933e+002, 5.942568e+002
4.294754e+002, 5.931247e+002
4.299575e+002, 5.921114e+002
4.304396e+002, 5.918685e+002
4.309217e+002, 5.926217e+002
4.314038e+002, 5.936408e+002
4.318860e+002, 5.939082e+002
4.323681e+002, 5.933918e+002
4.328502e+002, 5.930649e+002
4.333323e+002, 5.933010e+002
4.338144e+002, 5.938328e+002
4.342965e+002, 5.938987e+002
4.347787e+002, 5.935137e+002
4.352608e+002, 5.930418e+002
4.357429e+002, 5.927955e+002
4.362250e+002, 5.926681e+002
4.367071e+002, 5.922795e+002
4.371892e+002, 5.914921e+002
4.376714e+002, 5.908821e+002
4.381535e+002, 5.913832e+002
4.386356e+002, 5.925396e+002
4.391177e+002, 5.933395e+002
4.395998e+002, 5.927150e+002
4.400819e+002, 5.919703e+002
4.405641e+002, 5.923855e+002
4.410462e+002, 5.938513e+002
4.415283e+002, 5.951819e+002
4.420104e+002, 5.956048e+002
4.424925e+002, 5.956543e+002
4.429746e+002, 5.957383e+002
4.434568e+002, 5.958405e+002
4.439389e+002, 5.961532e+002
4.444210e+002, 5.970780e+002
4.449031e+002, 5.982167e+002
4.453852e+002, 5.988134e+002
4.458673e+002, 5.978533e+002
4.463495e+002, 5.971581e+002
4.468316e+002, 5.974835e+002
4.473137e+002, 5.990762e+002
4.477958e+002, 6.000378e+002
4.482779e+002, 5.999294e+002
4.487600e+002, 5.995638e+002
4.492422e+002, 5.995557e+002
4.497243e+002, 6.001668e+002
4.502064e+002, 6.006072e+002
4.506885e+002, 6.008228e+002
4.511706e+002, 6.008342e+002
4.516527e+002, 6.006013e+002
4.521349e+002, 5.999781e+002
4.526170e+002, 5.996073e+002
4.530991e+002, 5.997906e+002
4.535812e+002, 6.005154e+002
4.540633e+002, 6.015143e+002
4.545454e+002, 6.028674e+002
4.550276e+002, 6.041337e+002
4.555097e+002, 6.047914e+002
4.559918e+002, 6.049127e+002
4.564739e+002, 6.048937e+002
4.569560e+002, 6.048198e+002
4.574381e+002, 6.046592e+002
4.579203e+002, 6.042446e+002
4.584024e+002, 6.036534e+002
4.588845e+002, 6.032361e+002
4.593666e+002, 6.032875e+002
4.598488e+002, 6.036009e+002
4.603309e+002, 6.039427e+002
4.608130e+002, 6.042933e+002
4.612951e+002, 6.046823e+002
4.617772e+002, 6.053090e+002
4.622593e+002, 6.059213e+002
4.627415e+002, 6.062079e+002
4.632236e+002, 6.057155e+002
4.637057e+002, 6.052449e+002
4.641878e+002, 6.051335e+002
4.646699e+002, 6.053082e+002
4.651520e+002, 6.055052e+002
4.656342e+002, 6.058307e+002
4.661163e+002, 6.060234e+002
4.665984e+002, 6.059509e+002
4.670805e+002, 6.055159e+002
4.675626e+002, 6.050632e+002
4.680447e+002, 6.043352e+002
4.685269e+002, 6.037590e+002
4.690090e+002, 6.037977e+002
4.694911e+002, 6.047803e+002
4.699732e+002, 6.057776e+002
4.704553e+002, 6.067343e+002
4.709374e+002, 6.075940e+002
4.714196e+002, 6.081220e+002
4.719017e+002, 6.082676e+002
4.723838e+002, 6.081996e+002
4.728659e+002, 6.077990e+002
4.733480e+002, 6.070593e+002
4.738301e+002, 6.071442e+002
4.743123e+002, 6.082162e+002
4.747944e+002, 6.095178e+002
4.752765e+002, 6.100787e+002
4.757586e+002, 6.100278e+002
4.762407e+002, 6.100756e+002
4.767228e+002, 6.105743e+002
4.772050e+002, 6.111313e+002
4.776871e+002, 6.110098e+002
4.781692e+002, 6.103449e+002
4.786513e+002, 6.097755e+002
4.791334e+002, 6.096934e+002
4.796155e+002, 6.099310e+002
4.800977e+002, 6.103250e+002
4.805798e+002, 6.108646e+002
4.810619e+002, 6.115606e+002
4.815440e+002, 6.130242e+002
4.820261e+002, 6.144300e+002
4.825082e+002, 6.148282e+002
4.829904e+002, 6.125074e+002
4.834725e+002, 6.106357e+002
4.839546e+002, 6.104896e+002
4.844367e+002, 6.116926e+002
4.849188e+002, 6.125624e+002
4.854009e+002, 6.123632e+002
4.858831e+002, 6.122110e+002
4.863652e+002, 6.126107e+002
4.868473e+002, 6.138131e+002
4.873294e+002, 6.145789e+002
4.878115e+002, 6.146662e+002
4.882936e+002, 6.145203e+002
4.887758e+002, 6.146794e+002
4.892579e+002, 6.153783e+002
4.897400e+002, 6.155424e+002
4.902221e+002, 6.148044e+002
4.907042e+002, 6.135302e+002
4.911863e+002, 6.128027e+002
4.916685e+002, 6.126322e+002
4.921506e+002, 6.128652e+002
4.926327e+002, 6.137904e+002
4.931148e+002, 6.151490e+002
4.935969e+002, 6.156121e+002
4.940790e+002, 6.151376e+002
4.945612e+002, 6.141904e+002
4.950433e+002, 6.129096e+002
4.955254e+002, 6.115306e+002
4.960075e+002, 6.105298e+002
4.964896e+002, 6.101008e+002
4.969717e+002, 6.100338e+002
4.974539e+002, 6.104236e+002
4.979360e+002, 6.110571e+002
4.984181e+002, 6.113597e+002
4.989002e+002, 6.107054e+002
4.993823e+002, 6.099008e+002
4.998644e+002, 6.094664e+002
5.003466e+002, 6.094558e+002
5.008287e+002, 6.094019e+002
5.013108e+002, 6.088672e+002
5.017929e+002, 6.083846e+002
5.022750e+002, 6.083582e+002
5.027571e+002, 6.094300e+002
5.032393e+002, 6.101871e+002
5.037214e+002, 6.105283e+002
5.042035e+002, 6.105239e+002
5.046856e+002, 6.102640e+002
5.051677e+002, 6.094409e+002
5.056498e+002, 6.089523e+002
5.061320e+002, 6.092234e+002
5.066141e+002, 6.102139e+002
5.070962e+002, 6.106281e+002
5.075783e+002, 6.103743e+002
5.080604e+002, 6.098877e+002
5.085425e+002, 6.094421e+002
5.090247e+002, 6.090545e+002
5.095068e+002, 6.089230e+002
5.099889e+002, 6.091563e+002
5.104710e+002, 6.094154e+002
5.109531e+002, 6.091382e+002
5.114352e+002, 6.084579e+002
5.119174e+002, 6.078529e+002
5.123995e+002, 6.074835e+002
5.128816e+002, 6.073251e+002
5.133637e+002, 6.074910e+002
5.138458e+002, 6.079037e+002
5.143279e+002, 6.081219e+002
5.148101e+002, 6.075455e+002
5.152922e+002, 6.068602e+002
5.157743e+002, 6.066365e+002
5.162564e+002, 6.070450e+002
5.167385e+002, 6.075857e+002
5.172206e+002, 6.083313e+002
5.177028e+002, 6.090123e+002
5.181849e+002, 6.093191e+002
5.186670e+002, 6.090444e+002
5.191491e+002, 6.085701e+002
5.196312e+002, 6.077167e+002
5.201133e+002, 6.066759e+002
5.205955e+002, 6.062540e+002
5.210776e+002, 6.067589e+002
5.215597e+002, 6.074091e+002
5.220418e+002, 6.079675e+002
5.225239e+002, 6.084714e+002
5.230060e+002, 6.084899e+002
5.234882e+002, 6.078465e+002
5.239703e+002, 6.072421e+002
5.244524e+002, 6.076641e+002
5.249345e+002, 6.090088e+002
5.254166e+002, 6.097326e+002
5.258987e+002, 6.094193e+002
5.263809e+002, 6.086147e+002
5.268630e+002, 6.079659e+002
5.273451e+002, 6.075046e+002
5.278272e+002, 6.073890e+002
5.283093e+002, 6.079298e+002
5.287914e+002, 6.086995e+002
5.292736e+002, 6.091452e+002
5.297557e+002, 6.092880e+002
5.302378e+002, 6.096207e+002
5.307199e+002, 6.109105e+002
5.312020e+002, 6.122214e+002
5.316841e+002, 6.126848e+002
5.321663e+002, 6.116909e+002
5.326484e+002, 6.108694e+002
5.331305e+002, 6.107894e+002
5.336126e+002, 6.110804e+002
5.340947e+002, 6.112096e+002
5.345768e+002, 6.110829e+002
5.350590e+002, 6.108616e+002
5.355411e+002, 6.104715e+002
5.360232e+002, 6.099885e+002
5.365053e+002, 6.099262e+002
5.369874e+002, 6.105443e+002
5.374695e+002, 6.110355e+002
5.379517e+002, 6.107769e+002
5.384338e+002, 6.096921e+002
5.389159e+002, 6.096625e+002
5.393980e+002, 6.108906e+002
5.398801e+002, 6.123625e+002
5.403622e+002, 6.129625e+002
5.408444e+002, 6.128041e+002
5.413265e+002, 6.123756e+002
5.418086e+002, 6.116085e+002
5.422907e+002, 6.109506e+002
5.427728e+002, 6.111365e+002
5.432549e+002, 6.119230e+002
5.437371e+002, 6.126202e+002
5.442192e+002, 6.128133e+002
5.447013e+002, 6.128240e+002
5.451834e+002, 6.128804e+002
5.456655e+002, 6.129886e+002
5.461476e+002, 6.130824e+002
5.466298e+002, 6.129949e+002
5.471119e+002, 6.129891e+002
5.475940e+002, 6.133127e+002
5.480761e+002, 6.144597e+002
5.485582e+002, 6.149948e+002
5.490403e+002, 6.143117e+002
5.495225e+002, 6.132221e+002
5.500046e+002, 6.127296e+002
5.504867e+002, 6.132208e+002
5.509688e+002, 6.134901e+002
5.514509e+002, 6.131605e+002
5.519330e+002, 6.125046e+002
5.524152e+002, 6.126476e+002
5.528973e+002, 6.137291e+002
5.533794e+002, 6.147277e+002
5.538615e+002, 6.149979e+002
5.543436e+002, 6.146918e+002
5.548257e+002, 6.147625e+002
5.553079e+002, 6.152377e+002
5.557900e+002, 6.155361e+002
5.562721e+002, 6.147853e+002
5.567542e+002, 6.135557e+002
5.572363e+002, 6.129489e+002
5.577184e+002, 6.133392e+002
5.582006e+002, 6.139825e+002
5.586827e+002, 6.142888e+002
5.591648e+002, 6.144570e+002
5.596469e+002, 6.148284e+002
5.601290e+002, 6.160974e+002
5.606111e+002, 6.170375e+002
5.610933e+002, 6.169857e+002
5.615754e+002, 6.160856e+002
5.620575e+002, 6.153119e+002
5.625396e+002, 6.147488e+002
5.630217e+002, 6.143848e+002
5.635038e+002, 6.142536e+002
5.639860e+002, 6.144244e+002
5.644681e+002, 6.144581e+002
5.649502e+002, 6.142211e+002
5.654323e+002, 6.140477e+002
5.659144e+002, 6.143653e+002
5.663965e+002, 6.152390e+002
5.668787e+002, 6.158234e+002
5.673608e+002, 6.159472e+002
5.678429e+002, 6.158396e+002
5.683250e+002, 6.159291e+002
5.688071e+002, 6.161645e+002
5.692892e+002, 6.162405e+002
5.697714e+002, 6.157410e+002
5.702535e+002, 6.151921e+002
5.707356e+002, 6.155549e+002
5.712177e+002, 6.166531e+002
5.716998e+002, 6.174326e+002
5.721819e+002, 6.168010e+002
5.726641e+002, 6.159306e+002
5.731462e+002, 6.157266e+002
5.736283e+002, 6.163619e+002
5.741104e+002, 6.172676e+002
5.745925e+002, 6.188256e+002
5.750746e+002, 6.202784e+002
5.755568e+002, 6.209457e+002
5.760389e+002, 6.199887e+002
5.765210e+002, 6.193141e+002
5.770031e+002, 6.190940e+002
5.774852e+002, 6.191566e+002
5.779673e+002, 6.190041e+002
5.784495e+002, 6.183074e+002
5.789316e+002, 6.185907e+002
5.794137e+002, 6.210261e+002
5.798958e+002, 6.246853e+002
5.803779e+002, 6.251710e+002
5.808600e+002, 6.223630e+002
5.813422e+002, 6.193587e+002
5.818243e+002, 6.183307e+002
5.823064e+002, 6.186555e+002
5.827885e+002, 6.189484e+002
5.832706e+002, 6.190969e+002
5.837527e+002, 6.194311e+002
5.842349e+002, 6.207874e+002
5.847170e+002, 6.222684e+002
5.851991e+002, 6.226483e+002
5.856812e+002, 6.208154e+002
5.861633e+002, 6.191949e+002
5.866454e+002, 6.190446e+002
5.871276e+002, 6.197562e+002
5.876097e+002, 6.202298e+002
5.880918e+002, 6.201373e+002
5.885739e+002, 6.199124e+002
5.890560e+002, 6.194661e+002
5.895381e+002, 6.188932e+002
5.900203e+002, 6.189527e+002
5.905024e+002, 6.199537e+002
5.909845e+002, 6.209921e+002
5.914666e+002, 6.216960e+002
5.919487e+002, 6.220781e+002
5.924308e+002, 6.219671e+002
5.929130e+002, 6.212786e+002
5.933951e+002, 6.205842e+002
5.938772e+002, 6.204721e+002
5.943593e+002, 6.208253e+002
5.948414e+002, 6.212388e+002
5.953235e+002, 6.216046e+002
5.958057e+002, 6.221357e+002
5.962878e+002, 6.235509e+002
5.967699e+002, 6.252274e+002
5.972520e+002, 6.259866e+002
5.977341e+002, 6.243419e+002
5.982162e+002, 6.226548e+002
5.986984e+002, 6.221129e+002
5.991805e+002, 6.224987e+002
5.996626e+002, 6.229352e+002
6.001447e+002, 6.230769e+002
6.006268e+002, 6.233802e+002
6.011089e+002, 6.242234e+002
6.015911e+002, 6.257288e+002
6.020732e+002, 6.261456e+002
6.025553e+002, 6.247863e+002
6.030374e+002, 6.234316e+002
6.035195e+002, 6.235590e+002
6.040016e+002, 6.253292e+002
6.044838e+002, 6.264681e+002
6.049659e+002, 6.267716e+002
6.054480e+002, 6.266916e+002
6.059301e+002, 6.266735e+002
6.064122e+002, 6.267372e+002
6.068943e+002, 6.269824e+002
6.073765e+002, 6.275256e+002
6.078586e+002, 6.281042e+002
6.083407e+002, 6.285224e+002
6.088228e+002, 6.287462e+002
6.093049e+002, 6.286835e+002
6.097870e+002, 6.278124e+002
6.102692e+002, 6.270652e+002
6.107513e+002, 6.270881e+002
6.112334e+002, 6.278173e+002
6.117155e+002, 6.283500e+002
6.121976e+002, 6.284477e+002
6.126797e+002, 6.283643e+002
6.131619e+002, 6.281351e+002
6.136440e+002, 6.276249e+002
6.141261e+002, 6.276871e+002
6.146082e+002, 6.286864e+002
6.150903e+002, 6.296946e+002
6.155724e+002, 6.296993e+002
6.160546e+002, 6.286501e+002
6.165367e+002, 6.280906e+002
6.170188e+002, 6.282659e+002
6.175009e+002, 6.288293e+002
6.179830e+002, 6.294246e+002
6.184651e+002, 6.300052e+002
6.189473e+002, 6.303964e+002
6.194294e+002, 6.303876e+002
6.199115e+002, 6.303269e+002
6.203936e+002, 6.307019e+002
6.208757e+002, 6.313229e+002
6.213578e+002, 6.316337e+002
6.218400e+002, 6.307870e+002
6.223221e+002, 6.300984e+002
6.228042e+002, 6.304064e+002
6.232863e+002, 6.317610e+002
6.237684e+002, 6.328108e+002
6.242505e+002, 6.333669e+002
6.247327e+002, 6.336510e+002
6.252148e+002, 6.337390e+002
6.256969e+002, 6.335943e+002
6.261790e+002, 6.333544e+002
6.266611e+002, 6.328978e+002
6.271432e+002, 6.326107e+002
6.276254e+002, 6.330258e+002
6.281075e+002, 6.340941e+002
6.285896e+002, 6.350955e+002
6.290717e+002, 6.359760e+002
6.295538e+002, 6.365259e+002
6.300359e+002, 6.361754e+002
6.305181e+002, 6.352513e+002
6.310002e+002, 6.345702e+002
6.314823e+002, 6.344425e+002
6.319644e+002, 6.346854e+002
6.324465e+002, 6.352921e+002
6.329286e+002, 6.361818e+002
6.334108e+002, 6.370925e+002
6.338929e+002, 6.386363e+002
6.343750e+002, 6.395318e+002
6.348571e+002, 6.388798e+002
6.353392e+002, 6.365663e+002
6.358214e+002, 6.352064e+002
6.363035e+002, 6.351288e+002
6.367856e+002, 6.355325e+002
6.372677e+002, 6.360496e+002
6.377498e+002, 6.367083e+002
6.382319e+002, 6.372843e+002
6.387141e+002, 6.377670e+002
6.391962e+002, 6.382552e+002
6.396783e+002, 6.389642e+002
6.401604e+002, 6.397963e+002
6.406425e+002, 6.403309e+002
6.411246e+002, 6.404568e+002
6.416068e+002, 6.404073e+002
6.420889e+002, 6.402133e+002
6.425710e+002, 6.400459e+002
6.430531e+002, 6.402029e+002
6.435352e+002, 6.409994e+002
6.440173e+002, 6.419237e+002
6.444995e+002, 6.428640e+002
6.449816e+002, 6.437705e+002
6.454637e+002, 6.445421e+002
6.459458e+002, 6.454313e+002
6.464279e+002, 6.458255e+002
6.469100e+002, 6.453592e+002
6.473922e+002, 6.441238e+002
6.478743e+002, 6.433821e+002
6.483564e+002, 6.431412e+002
6.488385e+002, 6.433447e+002
6.493206e+002, 6.441833e+002
6.498027e+002, 6.455533e+002
6.502849e+002, 6.463732e+002
6.507670e+002, 6.466134e+002
6.512491e+002, 6.467239e+002
6.517312e+002, 6.471773e+002
6.522133e+002, 6.477441e+002
6.526954e+002, 6.480502e+002
6.531776e+002, 6.479990e+002
6.536597e+002, 6.478055e+002
6.541418e+002, 6.472823e+002
6.546239e+002, 6.468200e+002
6.551060e+002, 6.468693e+002
6.555881e+002, 6.482042e+002
6.560703e+002, 6.492475e+002
6.565524e+002, 6.496655e+002
6.570345e+002, 6.496832e+002
6.575166e+002, 6.496588e+002
6.579987e+002, 6.495740e+002
6.584808e+002, 6.494906e+002
6.589630e+002, 6.494167e+002
6.594451e+002, 6.493550e+002
6.599272e+002, 6.492855e+002
6.604093e+002, 6.492087e+002
6.608914e+002, 6.492502e+002
6.613735e+002, 6.496742e+002
6.618557e+002, 6.501951e+002
6.623378e+002, 6.501389e+002
6.628199e+002, 6.495869e+002
6.633020e+002, 6.492434e+002
6.637841e+002, 6.493760e+002
6.642662e+002, 6.500332e+002
6.647484e+002, 6.516754e+002
6.652305e+002, 6.546683e+002
6.657126e+002, 6.563476e+002
6.661947e+002, 6.547921e+002
6.666768e+002, 6.525490e+002
6.671589e+002, 6.514538e+002
6.676411e+002, 6.521168e+002
6.681232e+002, 6.526046e+002
6.686053e+002, 6.528727e+002
6.690874e+002, 6.530021e+002
6.695695e+002, 6.530375e+002
6.700516e+002, 6.529753e+002
6.705338e+002, 6.530418e+002
6.710159e+002, 6.532650e+002
6.714980e+002, 6.536631e+002
6.719801e+002, 6.545233e+002
6.724622e+002, 6.556024e+002
6.729443e+002, 6.562047e+002
6.734265e+002, 6.556330e+002
6.739086e+002, 6.548929e+002
6.743907e+002, 6.546322e+002
6.748728e+002, 6.547582e+002
6.753549e+002, 6.549786e+002
6.758370e+002, 6.554421e+002
6.763192e+002, 6.557606e+002
6.768013e+002, 6.557241e+002
6.772834e+002, 6.553751e+002
6.777655e+002, 6.551379e+002
6.782476e+002, 6.549702e+002
6.787297e+002, 6.550137e+002
6.792119e+002, 6.553894e+002
6.796940e+002, 6.560790e+002
6.801761e+002, 6.567454e+002
6.806582e+002, 6.573796e+002
6.811403e+002, 6.580216e+002
6.816224e+002, 6.589872e+002
6.821046e+002, 6.599106e+002
6.825867e+002, 6.598527e+002
6.830688e+002, 6.585586e+002
6.835509e+002, 6.574850e+002
6.840330e+002, 6.577327e+002
6.845151e+002, 6.586493e+002
6.849973e+002, 6.595984e+002
6.854794e+002, 6.607003e+002
6.859615e+002, 6.614153e+002
6.864436e+002, 6.614847e+002
6.869257e+002, 6.612117e+002
6.874078e+002, 6.609130e+002
6.878900e+002, 6.605455e+002
6.883721e+002, 6.602465e+002
6.888542e+002, 6.599594e+002
6.893363e+002, 6.598584e+002
6.898184e+002, 6.605381e+002
6.903005e+002, 6.619132e+002
6.907827e+002, 6.629125e+002
6.912648e+002, 6.629307e+002
6.917469e+002, 6.625441e+002
6.922290e+002, 6.625126e+002
6.927111e+002, 6.627668e+002
6.931932e+002, 6.630946e+002
6.936754e+002, 6.632842e+002
6.941575e+002, 6.635994e+002
6.946396e+002, 6.643530e+002
6.951217e+002, 6.654797e+002
6.956038e+002, 6.662147e+002
6.960859e+002, 6.661432e+002
6.965681e+002, 6.659456e+002
6.970502e+002, 6.658775e+002
6.975323e+002, 6.659500e+002
6.980144e+002, 6.658624e+002
6.984965e+002, 6.655983e+002
6.989786e+002, 6.652493e+002
6.994608e+002, 6.647761e+002
6.999429e+002, 6.642606e+002
7.004250e+002, 6.641251e+002
7.009071e+002, 6.644124e+002
7.013892e+002, 6.647864e+002
7.018713e+002, 6.648142e+002
7.023535e+002, 6.648209e+002
7.028356e+002, 6.653585e+002
7.033177e+002, 6.668764e+002
7.037998e+002, 6.678287e+002
7.042819e+002, 6.670804e+002
7.047640e+002, 6.657296e+002
7.052462e+002, 6.649388e+002
7.057283e+002, 6.647221e+002
7.062104e+002, 6.652148e+002
7.066925e+002, 6.668139e+002
7.071746e+002, 6.687466e+002
7.076567e+002, 6.697662e+002
7.081389e+002, 6.698209e+002
7.086210e+002, 6.696270e+002
7.091031e+002, 6.692716e+002
7.095852e+002, 6.688924e+002
7.100673e+002, 6.687674e+002
7.105494e+002, 6.688191e+002
7.110316e+002, 6.688066e+002
7.115137e+002, 6.685602e+002
7.119958e+002, 6.682716e+002
7.124779e+002, 6.678369e+002
7.129600e+002, 6.674348e+002
7.134421e+002, 6.676093e+002
7.139243e+002, 6.695461e+002
7.144064e+002, 6.709538e+002
7.148885e+002, 6.709022e+002
7.153706e+002, 6.696185e+002
7.158527e+002, 6.688865e+002
7.163348e+002, 6.687745e+002
7.168170e+002, 6.690150e+002
7.172991e+002, 6.696660e+002
7.177812e+002, 6.705813e+002
7.182633e+002, 6.708287e+002
7.187454e+002, 6.704293e+002
7.192275e+002, 6.701783e+002
7.197097e+002, 6.710106e+002
7.201918e+002, 6.721067e+002
7.206739e+002, 6.722885e+002
7.211560e+002, 6.714598e+002
7.216381e+002, 6.709872e+002
7.221202e+002, 6.719948e+002
7.226024e+002, 6.732461e+002
7.230845e+002, 6.739094e+002
7.235666e+002, 6.737761e+002
7.240487e+002, 6.734658e+002
7.245308e+002, 6.728373e+002
7.250129e+002, 6.722215e+002
7.254951e+002, 6.718285e+002
7.259772e+002, 6.716452e+002
7.264593e+002, 6.720300e+002
7.269414e+002, 6.731415e+002
7.274235e+002, 6.741980e+002
7.279056e+002, 6.738954e+002
7.283878e+002, 6.729099e+002
7.288699e+002, 6.728333e+002
7.293520e+002, 6.743505e+002
7.298341e+002, 6.758636e+002
7.303162e+002, 6.762537e+002
7.307983e+002, 6.760179e+002
7.312805e+002, 6.757917e+002
7.317626e+002, 6.757982e+002
7.322447e+002, 6.757095e+002
7.327268e+002, 6.753491e+002
7.332089e+002, 6.749634e+002
7.336910e+002, 6.749608e+002
7.341732e+002, 6.753915e+002
7.346553e+002, 6.760311e+002
7.351374e+002, 6.768851e+002
7.356195e+002, 6.778388e+002
7.361016e+002, 6.786837e+002
7.365837e+002, 6.794276e+002
7.370659e+002, 6.801197e+002
7.375480e+002, 6.810040e+002
7.380301e+002, 6.816014e+002
7.385122e+002, 6.811612e+002
7.389943e+002, 6.800709e+002
7.394764e+002, 6.793375e+002
7.399586e+002, 6.795032e+002
7.404407e+002, 6.798613e+002
7.409228e+002, 6.802614e+002
7.414049e+002, 6.806744e+002
7.418870e+002, 6.810047e+002
7.423691e+002, 6.812679e+002
7.428513e+002, 6.813817e+002
7.433334e+002, 6.812011e+002
7.438155e+002, 6.808739e+002
7.442976e+002, 6.811194e+002
7.447797e+002, 6.819111e+002
7.452618e+002, 6.826524e+002
7.457440e+002, 6.830922e+002
7.462261e+002, 6.832174e+002
7.467082e+002, 6.827578e+002
7.471903e+002, 6.818214e+002
7.476724e+002, 6.813206e+002
7.481545e+002, 6.821996e+002
7.486367e+002, 6.831600e+002
7.491188e+002, 6.834192e+002
7.496009e+002, 6.828454e+002
7.500830e+002, 6.826163e+002
7.505651e+002, 6.829022e+002
7.510472e+002, 6.832013e+002
7.515294e+002, 6.831349e+002
7.520115e+002, 6.827200e+002
7.524936e+002, 6.827211e+002
7.529757e+002, 6.831661e+002
7.534578e+002, 6.835525e+002
7.539399e+002, 6.830734e+002
7.544221e+002, 6.824163e+002
7.549042e+002, 6.828806e+002
7.553863e+002, 6.847247e+002
7.558684e+002, 6.860967e+002
7.563505e+002, 6.856521e+002
7.568326e+002, 6.846343e+002
7.573148e+002, 6.839675e+002
7.577969e+002, 6.837718e+002
7.582790e+002, 6.839346e+002
7.587611e+002, 6.846707e+002
7.592432e+002, 6.854809e+002
7.597253e+002, 6.858784e+002
7.602075e+002, 6.858506e+002
7.606896e+002, 6.859664e+002
7.611717e+002, 6.862696e+002
7.616538e+002, 6.866859e+002
7.621359e+002, 6.874222e+002
7.626180e+002, 6.881437e+002
7.631002e+002, 6.880381e+002
7.635823e+002, 6.865574e+002
7.640644e+002, 6.855854e+002
7.645465e+002, 6.867813e+002
7.650286e+002, 6.887181e+002
7.655107e+002, 6.898502e+002
7.659929e+002, 6.892146e+002
7.664750e+002, 6.889186e+002
7.669571e+002, 6.890232e+002
7.674392e+002, 6.894340e+002
7.679213e+002, 6.901386e+002
7.684034e+002, 6.911590e+002
7.688856e+002, 6.919306e+002
7.693677e+002, 6.923327e+002
7.698498e+002, 6.925325e+002
7.703319e+002, 6.926741e+002
7.708140e+002, 6.927752e+002
7.712961e+002, 6.928785e+002
7.717783e+002, 6.929887e+002
7.722604e+002, 6.930969e+002
7.727425e+002, 6.928915e+002
7.732246e+002, 6.927663e+002
7.737067e+002, 6.933583e+002
7.741888e+002, 6.959543e+002
7.746710e+002, 6.973527e+002
7.751531e+002, 6.966943e+002
7.756352e+002, 6.952169e+002
7.761173e+002, 6.954202e+002
7.765994e+002, 6.973683e+002
7.770815e+002, 6.985010e+002
7.775637e+002, 6.979557e+002
7.780458e+002, 6.968484e+002
7.785279e+002, 6.965771e+002
7.790100e+002, 6.969950e+002
7.794921e+002, 6.977900e+002
7.799742e+002, 6.994987e+002
7.804564e+002, 7.007687e+002
7.809385e+002, 7.006839e+002
7.814206e+002, 6.997758e+002
7.819027e+002, 6.991829e+002
7.823848e+002, 6.990685e+002
7.828669e+002, 6.991212e+002
7.833491e+002, 6.992784e+002
7.838312e+002, 6.995909e+002
7.843133e+002, 7.003777e+002
7.847954e+002, 7.016210e+002
7.852775e+002, 7.022784e+002
7.857596e+002, 7.016783e+002
7.862418e+002, 7.007866e+002
7.867239e+002, 7.010060e+002
7.872060e+002, 7.020024e+002
7.876881e+002, 7.029633e+002
7.881702e+002, 7.037657e+002
7.886523e+002, 7.041957e+002
7.891345e+002, 7.039329e+002
7.896166e+002, 7.032149e+002
7.900987e+002, 7.027564e+002
7.905808e+002, 7.026718e+002
7.910629e+002, 7.025999e+002
7.915450e+002, 7.023079e+002
7.920272e+002, 7.020797e+002
7.925093e+002, 7.029686e+002
7.929914e+002, 7.048712e+002
7.934735e+002, 7.064816e+002
7.939556e+002, 7.072204e+002
7.944377e+002, 7.074606e+002
7.949199e+002, 7.074423e+002
7.954020e+002, 7.072846e+002
7.958841e+002, 7.073021e+002
7.963662e+002, 7.078238e+002
7.968483e+002, 7.083180e+002
7.973304e+002, 7.086378e+002
7.978126e+002, 7.087887e+002
7.982947e+002, 7.087413e+002
7.987768e+002, 7.083837e+002
7.992589e+002, 7.081527e+002
7.997410e+002, 7.081865e+002
8.002231e+002, 7.084232e+002
8.007053e+002, 7.088400e+002
8.011874e+002, 7.093698e+002
8.016695e+002, 7.096210e+002
8.021516e+002, 7.089932e+002
8.026337e+002, 7.083686e+002
8.031158e+002, 7.086794e+002
8.035980e+002, 7.096307e+002
8.040801e+002, 7.104259e+002
8.045622e+002, 7.107170e+002
8.050443e+002, 7.109174e+002
8.055264e+002, 7.110182e+002
8.060085e+002, 7.111199e+002
8.064907e+002, 7.116683e+002
8.069728e+002, 7.128122e+002
8.074549e+002, 7.135829e+002
8.079370e+002, 7.135457e+002
8.084191e+002, 7.130696e+002
8.089012e+002, 7.127688e+002
8.093834e+002, 7.126691e+002
8.098655e+002, 7.128629e+002
8.103476e+002, 7.135909e+002
8.108297e+002, 7.144484e+002
8.113118e+002, 7.154223e+002
8.117939e+002, 7.163467e+002
8.122761e+002, 7.166884e+002
8.127582e+002, 7.155400e+002
8.132403e+002, 7.150397e+002
8.137224e+002, 7.159935e+002
8.142045e+002, 7.176996e+002
8.146866e+002, 7.177628e+002
8.151688e+002, 7.161548e+002
8.156509e+002, 7.152758e+002
8.161330e+002, 7.164580e+002
8.166151e+002, 7.182548e+002
8.170972e+002, 7.182000e+002
8.175793e+002, 7.170270e+002
8.180615e+002, 7.166342e+002
8.185436e+002, 7.188184e+002
8.190257e+002, 7.208906e+002
8.195078e+002, 7.216047e+002
8.199899e+002, 7.214096e+002
8.204720e+002, 7.216551e+002
8.209542e+002, 7.226811e+002
8.214363e+002, 7.232733e+002
8.219184e+002, 7.230323e+002
8.224005e+002, 7.223571e+002
8.228826e+002, 7.221324e+002
8.233647e+002, 7.223029e+002
8.238469e+002, 7.225516e+002
8.243290e+002, 7.227654e+002
8.248111e+002, 7.230165e+002
8.252932e+002, 7.234235e+002
8.257753e+002, 7.239211e+002
8.262574e+002, 7.243636e+002
8.267396e+002, 7.247913e+002
8.272217e+002, 7.250715e+002
8.277038e+002, 7.251425e+002
8.281859e+002, 7.250906e+002
8.286681e+002, 7.250594e+002
8.291502e+002, 7.250424e+002
8.296323e+002, 7.250610e+002
8.301144e+002, 7.250626e+002
8.305966e+002, 7.252172e+002
8.310787e+002, 7.261642e+002
8.315608e+002, 7.274484e+002
8.320429e+002, 7.279266e+002
8.325250e+002, 7.264672e+002
8.330071e+002, 7.253068e+002
8.334893e+002, 7.260438e+002
8.339714e+002, 7.276466e+002
8.344535e+002, 7.284441e+002
8.349356e+002, 7.277054e+002
8.354177e+002, 7.274727e+002
8.358998e+002, 7.281406e+002
8.363820e+002, 7.290548e+002
8.368641e+002, 7.292050e+002
8.373462e+002, 7.286650e+002
8.378283e+002, 7.280181e+002
8.383104e+002, 7.272802e+002
8.387925e+002, 7.268611e+002
8.392747e+002, 7.276334e+002
8.397568e+002, 7.288011e+002
8.402389e+002, 7.291967e+002
8.407210e+002, 7.276968e+002
8.412031e+002, 7.269312e+002
8.416852e+002, 7.281594e+002
8.421674e+002, 7.298180e+002
8.426495e+002, 7.303310e+002
8.431316e+002, 7.293988e+002
8.436137e+002, 7.292841e+002
8.440958e+002, 7.303809e+002
8.445779e+002, 7.314373e+002
8.450601e+002, 7.304205e+002
8.455422e+002, 7.284124e+002
8.460243e+002, 7.278293e+002
8.465064e+002, 7.293104e+002
8.469885e+002, 7.309041e+002
8.474706e+002, 7.320005e+002
8.479528e+002, 7.324229e+002
8.484349e+002, 7.318033e+002
8.489170e+002, 7.294051e+002
8.493991e+002, 7.281737e+002
8.498812e+002, 7.283871e+002
8.503633e+002, 7.291628e+002
8.508455e+002, 7.299813e+002
8.513276e+002, 7.307744e+002
8.518097e+002, 7.309805e+002
8.522918e+002, 7.305645e+002
8.527739e+002, 7.301028e+002
8.532560e+002, 7.300719e+002
8.537382e+002, 7.302194e+002
8.542203e+002, 7.303412e+002
8.547024e+002, 7.304279e+002
8.551845e+002, 7.304294e+002
8.556666e+002, 7.302257e+002
8.561487e+002, 7.300789e+002
8.566309e+002, 7.302128e+002
8.571130e+002, 7.306184e+002
8.575951e+002, 7.303231e+002
8.580772e+002, 7.292410e+002
8.585593e+002, 7.284772e+002
8.590414e+002, 7.291904e+002
8.595236e+002, 7.304757e+002
8.600057e+002, 7.306609e+002
8.604878e+002, 7.299206e+002
8.609699e+002, 7.297210e+002
8.614520e+002, 7.317989e+002
8.619341e+002, 7.335347e+002
8.624163e+002, 7.331358e+002
8.628984e+002, 7.310574e+002
8.633805e+002, 7.307074e+002
8.638626e+002, 7.328089e+002
8.643447e+002, 7.341365e+002
8.648268e+002, 7.330280e+002
8.653090e+002, 7.306178e+002
8.657911e+002, 7.297483e+002
8.662732e+002, 7.301280e+002
8.667553e+002, 7.305994e+002
8.672374e+002, 7.303894e+002
8.677195e+002, 7.302551e+002
8.682017e+002, 7.309628e+002
8.686838e+002, 7.321047e+002
8.691659e+002, 7.324579e+002
8.696480e+002, 7.316492e+002
8.701301e+002, 7.305701e+002
8.706122e+002, 7.292337e+002
8.710944e+002, 7.278746e+002
8.715765e+002, 7.270518e+002
8.720586e+002, 7.267145e+002
8.725407e+002, 7.264535e+002
8.730228e+002, 7.262246e+002
8.735049e+002, 7.259044e+002
8.739871e+002, 7.251602e+002
8.744692e+002, 7.243278e+002
8.749513e+002, 7.239037e+002
8.754334e+002, 7.244836e+002
8.759155e+002, 7.248842e+002
8.763976e+002, 7.250283e+002
8.768798e+002, 7.249469e+002
8.773619e+002, 7.245800e+002
8.778440e+002, 7.238967e+002
8.783261e+002, 7.235333e+002
8.788082e+002, 7.236362e+002
8.792903e+002, 7.236075e+002
8.797725e+002, 7.223365e+002
8.802546e+002, 7.206918e+002
8.807367e+002, 7.200545e+002
8.812188e+002, 7.208755e+002
8.817009e+002, 7.216317e+002
8.821830e+002, 7.215916e+002
8.826652e+002, 7.214470e+002
8.831473e+002, 7.217531e+002
8.836294e+002, 7.226686e+002
8.841115e+002, 7.229959e+002
8.845936e+002, 7.226867e+002
8.850757e+002, 7.220608e+002
8.855579e+002, 7.211304e+002
8.860400e+002, 7.201455e+002
8.865221e+002, 7.197911e+002
8.870042e+002, 7.200331e+002
8.874863e+002, 7.199707e+002
8.879684e+002, 7.184828e+002
8.884506e+002, 7.171437e+002
8.889327e+002, 7.171133e+002
8.894148e+002, 7.182844e+002
8.898969e+002, 7.185954e+002
8.903790e+002, 7.176387e+002
8.908611e+002, 7.170689e+002
8.913433e+002, 7.178279e+002
8.918254e+002, 7.192620e+002
8.923075e+002, 7.195488e+002
8.927896e+002, 7.189271e+002
8.932717e+002, 7.184630e+002
8.937538e+002, 7.191970e+002
8.942360e+002, 7.197311e+002
8.947181e+002, 7.188971e+002
8.952002e+002, 7.172418e+002
8.956823e+002, 7.162128e+002
8.961644e+002, 7.159286e+002
8.966465e+002, 7.162595e+002
8.971287e+002, 7.174756e+002
8.976108e+002, 7.188909e+002
8.980929e+002, 7.192232e+002
8.985750e+002, 7.186184e+002
8.990571e+002, 7.176790e+002
8.995392e+002, 7.164336e+002
9.000214e+002, 7.152676e+002
9.005035e+002, 7.144764e+002
9.009856e+002, 7.139408e+002
9.014677e+002, 7.135004e+002
9.019498e+002, 7.130388e+002
9.024319e+002, 7.129091e+002
9.029141e+002, 7.132979e+002
9.033962e+002, 7.137451e+002
9.038783e+002, 7.138990e+002
9.043604e+002, 7.137510e+002
9.048425e+002, 7.130578e+002
9.053246e+002, 7.117585e+002
9.058068e+002, 7.107386e+002
9.062889e+002, 7.110966e+002
9.067710e+002, 7.118011e+002
9.072531e+002, 7.118458e+002
9.077352e+002, 7.110800e+002
9.082173e+002, 7.104299e+002
9.086995e+002, 7.099809e+002
9.091816e+002, 7.097285e+002
9.096637e+002, 7.097079e+002
9.101458e+002, 7.098938e+002
9.106279e+002, 7.101633e+002
9.111100e+002, 7.105118e+002
9.115922e+002, 7.107995e+002
9.120743e+002, 7.110010e+002
9.125564e+002, 7.110716e+002
9.130385e+002, 7.107474e+002
9.135206e+002, 7.102422e+002
9.140027e+002, 7.101854e+002
9.144849e+002, 7.114378e+002
9.149670e+002, 7.122955e+002
9.154491e+002, 7.124550e+002
9.159312e+002, 7.120492e+002
9.164133e+002, 7.110292e+002
9.168954e+002, 7.094209e+002
9.173776e+002, 7.088881e+002
9.178597e+002, 7.101496e+002
9.183418e+002, 7.116097e+002
9.188239e+002, 7.112407e+002
9.193060e+002, 7.100476e+002
9.197881e+002, 7.094599e+002
9.202703e+002, 7.101122e+002
9.207524e+002, 7.108099e+002
9.212345e+002, 7.115973e+002
9.217166e+002, 7.121235e+002
9.221987e+002, 7.119245e+002
9.226808e+002, 7.109540e+002
9.231630e+002, 7.106771e+002
9.236451e+002, 7.112081e+002
9.241272e+002, 7.116092e+002
9.246093e+002, 7.105563e+002
9.250914e+002, 7.092501e+002
9.255735e+002, 7.092578e+002
9.260557e+002, 7.106651e+002
9.265378e+002, 7.118199e+002
9.270199e+002, 7.122330e+002
9.275020e+002, 7.123049e+002
9.279841e+002, 7.119674e+002
9.284662e+002, 7.113884e+002
9.289484e+002, 7.118532e+002
9.294305e+002, 7.133478e+002
9.299126e+002, 7.142172e+002
9.303947e+002, 7.128846e+002
9.308768e+002, 7.113854e+002
9.313589e+002, 7.125599e+002
9.318411e+002, 7.153855e+002
9.323232e+002, 7.175853e+002
9.328053e+002, 7.190034e+002
9.332874e+002, 7.188881e+002
9.337695e+002, 7.165109e+002
9.342516e+002, 7.132112e+002
9.347338e+002, 7.108956e+002
9.352159e+002, 7.095467e+002
9.356980e+002, 7.089978e+002
9.361801e+002, 7.093165e+002
9.366622e+002, 7.099078e+002
9.371443e+002, 7.103757e+002
9.376265e+002, 7.106520e+002
9.381086e+002, 7.104978e+002
9.385907e+002, 7.095988e+002
9.390728e+002, 7.094278e+002
9.395549e+002, 7.105580e+002
9.400370e+002, 7.120201e+002
9.405192e+002, 7.134163e+002
9.410013e+002, 7.147150e+002
9.414834e+002, 7.152703e+002
9.419655e+002, 7.150938e+002
9.424476e+002, 7.147237e+002
9.429297e+002, 7.143932e+002
9.434119e+002, 7.141400e+002
9.438940e+002, 7.140573e+002
9.443761e+002, 7.141012e+002
9.448582e+002, 7.140693e+002
9.453403e+002, 7.138552e+002
9.458224e+002, 7.136351e+002
9.463046e+002, 7.133609e+002
9.467867e+002, 7.131782e+002
9.472688e+002, 7.135974e+002
9.477509e+002, 7.145213e+002
9.482330e+002, 7.150148e+002
9.487151e+002, 7.145897e+002
9.491973e+002, 7.142943e+002
9.496794e+002, 7.156727e+002
9.501615e+002, 7.174717e+002
9.506436e+002, 7.180966e+002
9.511257e+002, 7.162061e+002
9.516078e+002, 7.152853e+002
9.520900e+002, 7.159511e+002
9.525721e+002, 7.166522e+002
9.530542e+002, 7.156680e+002
9.535363e+002, 7.134260e+002
9.540184e+002, 7.126836e+002
9.545005e+002, 7.135107e+002
9.549827e+002, 7.147537e+002
9.554648e+002, 7.155764e+002
9.559469e+002, 7.165250e+002
9.564290e+002, 7.184378e+002
9.569111e+002, 7.211476e+002
9.573932e+002, 7.222204e+002
9.578754e+002, 7.208351e+002
9.583575e+002, 7.195192e+002
9.588396e+002, 7.190627e+002
9.593217e+002, 7.191456e+002
9.598038e+002, 7.191674e+002
9.602859e+002, 7.190986e+002
9.607681e+002, 7.187714e+002
9.612502e+002, 7.175723e+002
9.617323e+002, 7.170372e+002
9.622144e+002, 7.190959e+002
9.626965e+002, 7.218262e+002
9.631786e+002, 7.225203e+002
9.636608e+002, 7.197025e+002
9.641429e+002, 7.191324e+002
9.646250e+002, 7.215670e+002
9.651071e+002, 7.244439e+002
9.655892e+002, 7.253508e+002
9.660714e+002, 7.247628e+002
9.665535e+002, 7.235141e+002
9.670356e+002, 7.217127e+002
9.675177e+002, 7.199318e+002
9.679998e+002, 7.181942e+002
9.684819e+002, 7.168263e+002
9.689641e+002, 7.158897e+002
9.694462e+002, 7.154166e+002
9.699283e+002, 7.159504e+002
9.704104e+002, 7.176548e+002
9.708925e+002, 7.190665e+002
9.713746e+002, 7.195081e+002
9.718568e+002, 7.194884e+002
9.723389e+002, 7.197504e+002
9.728210e+002, 7.201554e+002
9.733031e+002, 7.204207e+002
9.737852e+002, 7.203405e+002
9.742673e+002, 7.202252e+002
9.747495e+002, 7.199399e+002
9.752316e+002, 7.197972e+002
9.757137e+002, 7.202181e+002
9.761958e+002, 7.212357e+002
9.766779e+002, 7.221074e+002
9.771600e+002, 7.227906e+002
9.776422e+002, 7.232869e+002
9.781243e+002, 7.236406e+002
9.786064e+002, 7.238088e+002
9.790885e+002, 7.236445e+002
9.795706e+002, 7.231404e+002
9.800527e+002, 7.228849e+002
9.805349e+002, 7.233207e+002
9.810170e+002, 7.234514e+002
9.814991e+002, 7.226719e+002
9.819812e+002, 7.214503e+002
9.824633e+002, 7.216181e+002
9.829454e+002, 7.229531e+002
9.834276e+002, 7.241424e+002
9.839097e+002, 7.247689e+002
9.843918e+002, 7.248829e+002
9.848739e+002, 7.238446e+002
9.853560e+002, 7.225568e+002
9.858381e+002, 7.225322e+002
9.863203e+002, 7.246614e+002
9.868024e+002, 7.262616e+002
9.872845e+002, 7.272569e+002
9.877666e+002, 7.276788e+002
9.882487e+002, 7.272857e+002
9.887308e+002, 7.263970e+002
9.892130e+002, 7.258050e+002
9.896951e+002, 7.255784e+002
9.901772e+002, 7.254977e+002
9.906593e+002, 7.255019e+002
9.911414e+002, 7.255588e+002
9.916235e+002, 7.255702e+002
9.921057e+002, 7.255846e+002
9.925878e+002, 7.260088e+002
9.930699e+002, 7.268934e+002
9.935520e+002, 7.277869e+002
9.940341e+002, 7.286618e+002
9.945162e+002, 7.292384e+002
9.949984e+002, 7.288913e+002
9.954805e+002, 7.279961e+002
9.959626e+002, 7.272485e+002
9.964447e+002, 7.266027e+002
9.969268e+002, 7.266047e+002
9.974089e+002, 7.277939e+002
9.978911e+002, 7.291555e+002
9.983732e+002, 7.297849e+002
9.988553e+002, 7.297069e+002
9.993374e+002, 7.293773e+002
9.998195e+002, 7.288181e+002
1.000302e+003, 7.285002e+002
1.000784e+003, 7.288942e+002
1.001266e+003, 7.295828e+002
1.001748e+003, 7.303250e+002
1.002230e+003, 7.310717e+002
1.002712e+003, 7.315721e+002
1.003194e+003, 7.316590e+002
1.003676e+003, 7.318146e+002
1.004159e+003, 7.321837e+002
1.004641e+003, 7.326423e+002
1.005123e+003, 7.330785e+002
1.005605e+003, 7.334046e+002
1.006087e+003, 7.332811e+002
1.006569e+003, 7.323126e+002
1.007051e+003, 7.316887e+002
1.007533e+003, 7.324323e+002
1.008016e+003, 7.334924e+002
1.008498e+003, 7.338368e+002
1.008980e+003, 7.332235e+002
1.009462e+003, 7.333824e+002
1.009944e+003, 7.344053e+002
1.010426e+003, 7.355942e+002
1.010908e+003, 7.364301e+002
1.011390e+003, 7.371093e+002
1.011872e+003, 7.380994e+002
1.012355e+003, 7.392175e+002
1.012837e+003, 7.396865e+002
1.013319e+003, 7.383957e+002
1.013801e+003, 7.375146e+002
1.014283e+003, 7.375585e+002
1.014765e+003, 7.381439e+002
1.015247e+003, 7.386984e+002
1.015729e+003, 7.391914e+002
1.016211e+003, 7.392429e+002
1.016694e+003, 7.386377e+002
1.017176e+003, 7.383570e+002
1.017658e+003, 7.399670e+002
1.018140e+003, 7.417655e+002
1.018622e+003, 7.419394e+002
1.019104e+003, 7.399573e+002
1.019586e+003, 7.392731e+002
1.020068e+003, 7.402302e+002
1.020551e+003, 7.414001e+002
1.021033e+003, 7.420530e+002
1.021515e+003, 7.423803e+002
1.021997e+003, 7.428619e+002
1.022479e+003, 7.433754e+002
1.022961e+003, 7.435518e+002
1.023443e+003, 7.426242e+002
1.023925e+003, 7.420858e+002
1.024407e+003, 7.425064e+002
1.024890e+003, 7.434184e+002
1.025372e+003, 7.443804e+002
1.025854e+003, 7.453903e+002
1.026336e+003, 7.460147e+002
1.026818e+003, 7.461807e+002
1.027300e+003, 7.462748e+002
1.027782e+003, 7.465651e+002
1.028264e+003, 7.470046e+002
1.028746e+003, 7.477344e+002
1.029229e+003, 7.487397e+002
1.029711e+003, 7.490168e+002
1.030193e+003, 7.481483e+002
1.030675e+003, 7.473562e+002
1.031157e+003, 7.469684e+002
1.031639e+003, 7.469930e+002
1.032121e+003, 7.477072e+002
1.032603e+003, 7.488655e+002
1.033086e+003, 7.496649e+002
1.033568e+003, 7.497719e+002
1.034050e+003, 7.497009e+002
1.034532e+003, 7.497725e+002
1.035014e+003, 7.497025e+002
1.035496e+003, 7.491190e+002
1.035978e+003, 7.478471e+002
1.036460e+003, 7.474323e+002
1.036943e+003, 7.479139e+002
1.037425e+003, 7.487721e+002
1.037907e+003, 7.499996e+002
1.038389e+003, 7.511297e+002
1.038871e+003, 7.515071e+002
1.039353e+003, 7.512958e+002
1.039835e+003, 7.511871e+002
1.040317e+003, 7.513148e+002
1.040799e+003, 7.515163e+002
1.041281e+003, 7.517045e+002
1.041764e+003, 7.520406e+002
1.042246e+003, 7.529474e+002
1.042728e+003, 7.542211e+002
1.043210e+003, 7.552781e+002
1.043692e+003, 7.560735e+002
1.044174e+003, 7.562598e+002
1.044656e+003, 7.548807e+002
1.045138e+003, 7.535186e+002
1.045621e+003, 7.531902e+002
1.046103e+003, 7.538414e+002
1.046585e+003, 7.550396e+002
1.047067e+003, 7.568688e+002
1.047549e+003, 7.579219e+002
1.048031e+003, 7.571376e+002
1.048513e+003, 7.558473e+002
1.048995e+003, 7.555020e+002
1.049478e+003, 7.558027e+002
1.049960e+003, 7.562406e+002
1.050442e+003, 7.568787e+002
1.050924e+003, 7.573564e+002
1.051406e+003, 7.576276e+002
1.051888e+003, 7.578334e+002
1.052370e+003, 7.582553e+002
1.052852e+003, 7.587210e+002
1.053334e+003, 7.584044e+002
1.053817e+003, 7.573886e+002
1.054299e+003, 7.567304e+002
1.054781e+003, 7.574589e+002
1.055263e+003, 7.582072e+002
1.055745e+003, 7.581432e+002
1.056227e+003, 7.577035e+002
1.056709e+003, 7.581285e+002
1.057191e+003, 7.595012e+002
1.057673e+003, 7.598510e+002
1.058156e+003, 7.584757e+002
1.058638e+003, 7.572332e+002
1.059120e+003, 7.586760e+002
1.059602e+003, 7.609033e+002
1.060084e+003, 7.616779e+002
1.060566e+003, 7.603286e+002
1.061048e+003, 7.597776e+002
1.061530e+003, 7.604770e+002
1.062013e+003, 7.611541e+002
1.062495e+003, 7.612679e+002
1.062977e+003, 7.609020e+002
1.063459e+003, 7.597317e+002
1.063941e+003, 7.582471e+002
1.064423e+003, 7.578607e+002
1.064905e+003, 7.604946e+002
1.065387e+003, 7.623858e+002
1.065870e+003, 7.616251e+002
1.066352e+003, 7.601846e+002
1.066834e+003, 7.597579e+002
1.067316e+003, 7.603548e+002
1.067798e+003, 7.611207e+002
1.068280e+003, 7.620315e+002
1.068762e+003, 7.629355e+002
1.069244e+003, 7.641232e+002
1.069726e+003, 7.649279e+002
1.070208e+003, 7.646002e+002
1.070691e+003, 7.633593e+002
1.071173e+003, 7.622632e+002
1.071655e+003, 7.612593e+002
1.072137e+003, 7.606299e+002
1.072619e+003, 7.604036e+002
1.073101e+003, 7.606096e+002
1.073583e+003, 7.615554e+002
1.074065e+003, 7.628417e+002
1.074548e+003, 7.638640e+002
1.075030e+003, 7.645064e+002
1.075512e+003, 7.649239e+002
1.075994e+003, 7.651076e+002
1.076476e+003, 7.651126e+002
1.076958e+003, 7.648814e+002
1.077440e+003, 7.645175e+002
1.077922e+003, 7.643835e+002
1.078405e+003, 7.644661e+002
1.078887e+003, 7.646956e+002
1.079369e+003, 7.650911e+002
1.079851e+003, 7.655604e+002
1.080333e+003, 7.662613e+002
1.080815e+003, 7.668784e+002
1.081297e+003, 7.670339e+002
1.081779e+003, 7.666149e+002
1.082261e+003, 7.664160e+002
1.082744e+003, 7.664493e+002
1.083226e+003, 7.665109e+002
1.083708e+003, 7.662096e+002
1.084190e+003, 7.660446e+002
1.084672e+003, 7.668685e+002
1.085154e+003, 7.683000e+002
1.085636e+003, 7.689808e+002
1.086118e+003, 7.681052e+002
1.086601e+003, 7.678463e+002
1.087083e+003, 7.686323e+002
1.087565e+003, 7.696833e+002
1.088047e+003, 7.699322e+002
1.088529e+003, 7.697269e+002
1.089011e+003, 7.698223e+002
1.089493e+003, 7.702997e+002
1.089975e+003, 7.707715e+002
1.090458e+003, 7.712518e+002
1.090940e+003, 7.714583e+002
1.091422e+003, 7.711693e+002
1.091904e+003, 7.706037e+002
1.092386e+003, 7.704210e+002
1.092868e+003, 7.705883e+002
1.093350e+003, 7.709330e+002
1.093832e+003, 7.714096e+002
1.094314e+003, 7.720341e+002
1.094797e+003, 7.733488e+002
1.095279e+003, 7.744348e+002
1.095761e+003, 7.741635e+002
1.096243e+003, 7.723948e+002
1.096725e+003, 7.720670e+002
1.097207e+003, 7.733229e+002
1.097689e+003, 7.744579e+002
1.098171e+003, 7.742198e+002
1.098653e+003, 7.736945e+002
1.099136e+003, 7.743550e+002
1.099618e+003, 7.756076e+002
1.100100e+003, 7.762773e+002
1.100582e+003, 7.756606e+002
1.101064e+003, 7.752968e+002
1.101546e+003, 7.752457e+002
1.102028e+003, 7.753720e+002
1.102510e+003, 7.755397e+002
1.102993e+003, 7.757896e+002
1.103475e+003, 7.764706e+002
1.103957e+003, 7.774354e+002
1.104439e+003, 7.777380e+002
1.104921e+003, 7.761633e+002
1.105403e+003, 7.749234e+002
1.105885e+003, 7.745577e+002
1.106367e+003, 7.748289e+002
1.106849e+003, 7.755208e+002
1.107332e+003, 7.765327e+002
1.107814e+003, 7.773018e+002
1.108296e+003, 7.777491e+002
1.108778e+003, 7.780272e+002
1.109260e+003, 7.780724e+002
1.109742e+003, 7.781374e+002
1.110224e+003, 7.783753e+002
1.110706e+003, 7.787643e+002
1.111188e+003, 7.792617e+002
1.111671e+003, 7.798674e+002
1.112153e+003, 7.804355e+002
1.112635e+003, 7.809955e+002
1.113117e+003, 7.812902e+002
1.113599e+003, 7.806742e+002
1.114081e+003, 7.798602e+002
1.114563e+003, 7.796998e+002
1.115045e+003, 7.803412e+002
1.115528e+003, 7.814260e+002
1.116010e+003, 7.831580e+002
1.116492e+003, 7.845033e+002
1.116974e+003, 7.847117e+002
1.117456e+003, 7.843463e+002
1.117938e+003, 7.840313e+002
1.118420e+003, 7.838969e+002
1.118902e+003, 7.842141e+002
1.119385e+003, 7.858781e+002
1.119867e+003, 7.867233e+002
1.120349e+003, 7.864114e+002
1.120831e+003, 7.857711e+002
1.121313e+003, 7.854170e+002
1.121795e+003, 7.853582e+002
1.122277e+003, 7.855771e+002
1.122759e+003, 7.860892e+002
1.123241e+003, 7.869958e+002
1.123724e+003, 7.890728e+002
1.124206e+003, 7.905767e+002
1.124688e+003, 7.907128e+002
1.125170e+003, 7.903364e+002
1.125652e+003, 7.910461e+002
1.126134e+003, 7.925699e+002
1.126616e+003, 7.927510e+002
1.127098e+003, 7.912947e+002
1.127580e+003, 7.900046e+002
1.128063e+003, 7.903602e+002
1.128545e+003, 7.910308e+002
1.129027e+003, 7.912214e+002
1.129509e+003, 7.910495e+002
1.129991e+003, 7.909334e+002
1.130473e+003, 7.908846e+002
1.130955e+003, 7.906085e+002
1.131437e+003, 7.898918e+002
1.131920e+003, 7.895006e+002
1.132402e+003, 7.905790e+002
1.132884e+003, 7.920538e+002
1.133366e+003, 7.928041e+002
1.133848e+003, 7.926864e+002
1.134330e+003, 7.928386e+002
1.134812e+003, 7.933079e+002
1.135294e+003, 7.937279e+002
1.135776e+003, 7.937518e+002
1.136259e+003, 7.939222e+002
1.136741e+003, 7.954233e+002
1.137223e+003, 7.973946e+002
1.137705e+003, 7.983909e+002
1.138187e+003, 7.968793e+002
1.138669e+003, 7.974830e+002
1.139151e+003, 8.011379e+002
1.139633e+003, 8.045538e+002
1.140115e+003, 8.054839e+002
1.140598e+003, 8.046603e+002
1.141080e+003, 8.028440e+002
1.141562e+003, 8.005856e+002
1.142044e+003, 7.993701e+002
1.142526e+003, 8.009610e+002
1.143008e+003, 8.018660e+002
1.143490e+003, 8.013694e+002
1.143972e+003, 8.006447e+002
1.144455e+003, 8.009333e+002
1.144937e+003, 8.019568e+002
1.145419e+003, 8.029189e+002
1.145901e+003, 8.037462e+002
1.146383e+003, 8.042584e+002
1.146865e+003, 8.039468e+002
1.147347e+003, 8.038340e+002
1.147829e+003, 8.043785e+002
1.148312e+003, 8.051336e+002
1.148794e+003, 8.054163e+002
1.149276e+003, 8.052718e+002
1.149758e+003, 8.047202e+002
1.150240e+003, 8.037483e+002
1.150722e+003, 8.035976e+002
1.151204e+003, 8.063008e+002
1.151686e+003, 8.087678e+002
1.152168e+003, 8.089675e+002
1.152651e+003, 8.077148e+002
1.153133e+003, 8.074107e+002
1.153615e+003, 8.080010e+002
1.154097e+003, 8.080267e+002
1.154579e+003, 8.069352e+002
1.155061e+003, 8.064234e+002
1.155543e+003, 8.088085e+002
1.156025e+003, 8.116245e+002
1.156507e+003, 8.125499e+002
1.156990e+003, 8.117919e+002
1.157472e+003, 8.115998e+002
1.157954e+003, 8.120115e+002
1.158436e+003, 8.124642e+002
1.158918e+003, 8.127781e+002
1.159400e+003, 8.130447e+002
1.159882e+003, 8.133228e+002
1.160364e+003, 8.136290e+002
1.160847e+003, 8.139645e+002
1.161329e+003, 8.143069e+002
1.161811e+003, 8.149086e+002
1.162293e+003, 8.158391e+002
1.162775e+003, 8.165241e+002
1.163257e+003, 8.163772e+002
1.163739e+003, 8.161771e+002
1.164221e+003, 8.170397e+002
1.164703e+003, 8.184882e+002
1.165186e+003, 8.197822e+002
1.165668e+003, 8.211601e+002
1.166150e+003, 8.212092e+002
1.166632e+003, 8.195146e+002
1.167114e+003, 8.180077e+002
1.167596e+003, 8.184572e+002
1.168078e+003, 8.197652e+002
1.168560e+003, 8.202372e+002
1.169042e+003, 8.200800e+002
1.169525e+003, 8.198466e+002
1.170007e+003, 8.193920e+002
1.170489e+003, 8.194426e+002
1.170971e+003, 8.202155e+002
1.171453e+003, 8.210654e+002
1.171935e+003, 8.213243e+002
1.172417e+003, 8.212559e+002
1.172899e+003, 8.212014e+002
1.173382e+003, 8.212631e+002
1.173864e+003, 8.218131e+002
1.174346e+003, 8.238057e+002
1.174828e+003, 8.250602e+002
1.175310e+003, 8.250825e+002
1.175792e+003, 8.246476e+002
1.176274e+003, 8.247224e+002
1.176756e+003, 8.251192e+002
1.177239e+003, 8.254261e+002
1.177721e+003, 8.256005e+002
1.178203e+003, 8.257058e+002
1.178685e+003, 8.257233e+002
1.179167e+003, 8.257014e+002
1.179649e+003, 8.256154e+002
1.180131e+003, 8.255338e+002
1.180613e+003, 8.254805e+002
1.181095e+003, 8.255427e+002
1.181578e+003, 8.261498e+002
1.182060e+003, 8.274106e+002
1.182542e+003, 8.282635e+002
1.183024e+003, 8.275950e+002
1.183506e+003, 8.272649e+002
1.183988e+003, 8.281910e+002
1.184470e+003, 8.296717e+002
1.184952e+003, 8.296318e+002
1.185434e+003, 8.285789e+002
1.185917e+003, 8.284366e+002
1.186399e+003, 8.298694e+002
1.186881e+003, 8.310693e+002
1.187363e+003, 8.306308e+002
1.187845e+003, 8.303376e+002
1.188327e+003, 8.310880e+002
1.188809e+003, 8.326252e+002
1.189291e+003, 8.342390e+002
1.189774e+003, 8.358239e+002
1.190256e+003, 8.369313e+002
1.190738e+003, 8.373617e+002
1.191220e+003, 8.374352e+002
1.191702e+003, 8.370805e+002
1.192184e+003, 8.366102e+002
1.192666e+003, 8.360609e+002
1.193148e+003, 8.355560e+002
1.193630e+003, 8.361584e+002
1.194113e+003, 8.376747e+002
1.194595e+003, 8.389836e+002
1.195077e+003, 8.396201e+002
1.195559e+003, 8.399477e+002
1.196041e+003, 8.397703e+002
1.196523e+003, 8.396888e+002
1.197005e+003, 8.403831e+002
1.197487e+003, 8.417543e+002
1.197969e+003, 8.418410e+002
1.198452e+003, 8.408027e+002
1.198934e+003, 8.398333e+002
1.199416e+003, 8.394641e+002
1.199898e+003, 8.394374e+002
1.200380e+003, 8.399036e+002
1.200862e+003, 8.404675e+002
1.201344e+003, 8.405988e+002
1.201826e+003, 8.403018e+002
1.202309e+003, 8.410339e+002
1.202791e+003, 8.427027e+002
1.203273e+003, 8.441023e+002
1.203755e+003, 8.441624e+002
1.204237e+003, 8.442067e+002
1.204719e+003, 8.450441e+002
1.205201e+003, 8.461370e+002
1.205683e+003, 8.467955e+002
1.206166e+003, 8.470174e+002
1.206648e+003, 8.475948e+002
1.207130e+003, 8.485246e+002
1.207612e+003, 8.493641e+002
1.208094e+003, 8.498273e+002
1.208576e+003, 8.501091e+002
1.209058e+003, 8.503729e+002
1.209540e+003, 8.504680e+002
1.210022e+003, 8.498948e+002
1.210505e+003, 8.487088e+002
1.210987e+003, 8.489109e+002
1.211469e+003, 8.506102e+002
1.211951e+003, 8.521387e+002
1.212433e+003, 8.519843e+002
1.212915e+003, 8.518049e+002
1.213397e+003, 8.529831e+002
1.213879e+003, 8.545128e+002
1.214361e+003, 8.543490e+002
1.214844e+003, 8.526581e+002
1.215326e+003, 8.521666e+002
1.215808e+003, 8.531918e+002
1.216290e+003, 8.541918e+002
1.216772e+003, 8.537714e+002
1.217254e+003, 8.534041e+002
1.217736e+003, 8.540703e+002
1.218218e+003, 8.552393e+002
1.218701e+003, 8.556546e+002
1.219183e+003, 8.554263e+002
1.219665e+003, 8.561120e+002
1.220147e+003, 8.579900e+002
1.220629e+003, 8.595763e+002
1.221111e+003, 8.595191e+002
1.221593e+003, 8.593082e+002
1.222075e+003, 8.597821e+002
1.222557e+003, 8.606686e+002
1.223040e+003, 8.613482e+002
1.223522e+003, 8.618190e+002
1.224004e+003, 8.619570e+002
1.224486e+003, 8.617067e+002
1.224968e+003, 8.615825e+002
1.225450e+003, 8.623422e+002
1.225932e+003, 8.628065e+002
1.226414e+003, 8.620942e+002
1.226896e+003, 8.608323e+002
1.227379e+003, 8.610114e+002
1.227861e+003, 8.624086e+002
1.228343e+003, 8.638508e+002
1.228825e+003, 8.650918e+002
1.229307e+003, 8.662818e+002
1.229789e+003, 8.677659e+002
1.230271e+003, 8.688878e+002
1.230753e+003, 8.692422e+002
1.231236e+003, 8.690570e+002
1.231718e+003, 8.689544e+002
1.232200e+003, 8.689733e+002
1.232682e+003, 8.694719e+002
1.233164e+003, 8.707722e+002
1.233646e+003, 8.713904e+002
1.234128e+003, 8.695649e+002
1.234610e+003, 8.680399e+002
1.235093e+003, 8.680107e+002
1.235575e+003, 8.692781e+002
1.236057e+003, 8.720141e+002
1.236539e+003, 8.755142e+002
1.237021e+003, 8.772214e+002
1.237503e+003, 8.759750e+002
1.237985e+003, 8.745856e+002
1.238467e+003, 8.737440e+002
1.238949e+003, 8.734434e+002
1.239432e+003, 8.738009e+002
1.239914e+003, 8.746267e+002
1.240396e+003, 8.755463e+002
1.240878e+003, 8.764349e+002
1.241360e+003, 8.768155e+002
1.241842e+003, 8.761814e+002
1.242324e+003, 8.762634e+002
1.242806e+003, 8.777174e+002
1.243288e+003, 8.795120e+002
1.243771e+003, 8.814052e+002
1.244253e+003, 8.830897e+002
1.244735e+003, 8.835179e+002
1.245217e+003, 8.831855e+002
1.245699e+003, 8.833148e+002
1.246181e+003, 8.845242e+002
1.246663e+003, 8.854177e+002
1.247145e+003, 8.858556e+002
1.247628e+003, 8.859381e+002
1.248110e+003, 8.854442e+002
1.248592e+003, 8.849014e+002
1.249074e+003, 8.856950e+002
1.249556e+003, 8.872198e+002
1.250038e+003, 8.883126e+002
1.250520e+003, 8.884799e+002
1.251002e+003, 8.885761e+002
1.251484e+003, 8.884590e+002
1.251967e+003, 8.888459e+002
1.252449e+003, 8.904661e+002
1.252931e+003, 8.924836e+002
1.253413e+003, 8.937415e+002
1.253895e+003, 8.943861e+002
1.254377e+003, 8.946087e+002
1.254859e+003, 8.942564e+002
1.255341e+003, 8.938300e+002
1.255823e+003, 8.931323e+002
1.256306e+003, 8.933404e+002
1.256788e+003, 8.961095e+002
1.257270e+003, 8.990059e+002
1.257752e+003, 8.985577e+002
1.258234e+003, 8.964211e+002
1.258716e+003, 8.952229e+002
1.259198e+003, 8.953038e+002
1.259680e+003, 8.959573e+002
1.260163e+003, 8.972718e+002
1.260645e+003, 8.984957e+002
1.261127e+003, 8.994743e+002
1.261609e+003, 8.998946e+002
1.262091e+003, 8.989091e+002
1.262573e+003, 8.974898e+002
1.263055e+003, 8.970078e+002
1.263537e+003, 8.976199e+002
1.264020e+003, 8.980757e+002
1.264502e+003, 8.983748e+002
1.264984e+003, 8.988906e+002
1.265466e+003, 8.999768e+002
1.265948e+003, 9.011434e+002
1.266430e+003, 9.023778e+002
1.266912e+003, 9.032607e+002
1.267394e+003, 9.031309e+002
1.267876e+003, 9.019567e+002
1.268359e+003, 9.020955e+002
1.268841e+003, 9.034265e+002
1.269323e+003, 9.048779e+002
1.269805e+003, 9.064977e+002
1.270287e+003, 9.072781e+002
1.270769e+003, 9.058452e+002
1.271251e+003, 9.041744e+002
1.271733e+003, 9.039407e+002
1.272215e+003, 9.049364e+002
1.272698e+003, 9.053428e+002
1.273180e+003, 9.053082e+002
1.273662e+003, 9.054745e+002
1.274144e+003, 9.064010e+002
1.274626e+003, 9.072056e+002
1.275108e+003, 9.077411e+002
1.275590e+003, 9.080770e+002
1.276072e+003, 9.081087e+002
1.276555e+003, 9.080067e+002
1.277037e+003, 9.083715e+002
1.277519e+003, 9.090991e+002
1.278001e+003, 9.099018e+002
1.278483e+003, 9.108479e+002
1.278965e+003, 9.115128e+002
1.279447e+003, 9.117813e+002
1.279929e+003, 9.119683e+002
1.280411e+003, 9.121702e+002
1.280894e+003, 9.125260e+002
1.281376e+003, 9.134999e+002
1.281858e+003, 9.148075e+002
1.282340e+003, 9.158182e+002
1.282822e+003, 9.162703e+002
1.283304e+003, 9.167939e+002
1.283786e+003, 9.174988e+002
1.284268e+003, 9.177642e+002
1.284750e+003, 9.165144e+002
1.285233e+003, 9.151769e+002
1.285715e+003, 9.157607e+002
1.286197e+003, 9.173086e+002
1.286679e+003, 9.180126e+002
1.287161e+003, 9.172218e+002
1.287643e+003, 9.181927e+002
1.288125e+003, 9.209929e+002
1.288607e+003, 9.236116e+002
1.289090e+003, 9.249152e+002
1.289572e+003, 9.253847e+002
1.290054e+003, 9.245891e+002
1.290536e+003, 9.236279e+002
1.291018e+003, 9.240127e+002
1.291500e+003, 9.258204e+002
1.291982e+003, 9.265346e+002
1.292464e+003, 9.262379e+002
1.292947e+003, 9.257182e+002
1.293429e+003, 9.251274e+002
1.293911e+003, 9.247753e+002
1.294393e+003, 9.249538e+002
1.294875e+003, 9.253502e+002
1.295357e+003, 9.257174e+002
1.295839e+003, 9.260920e+002
1.296321e+003, 9.269490e+002
1.296803e+003, 9.281534e+002
1.297286e+003, 9.291214e+002
1.297768e+003, 9.295703e+002
1.298250e+003, 9.297981e+002
1.298732e+003, 9.295768e+002
1.299214e+003, 9.297679e+002
1.299696e+003, 9.312449e+002
1.300178e+003, 9.332849e+002
1.300660e+003, 9.349127e+002
##END=



