##NAMES=Ribbeite
##RRUFFID=R150125
##IDEAL CHEMISTRY=Mn^2+^_5_(SiO_4_)_2_(OH)_2_
##LOCALITY=Parker Shaft, Franklin, Sussex County, New Jersey, USA
##OWNER=RRUFF
##SOURCE=Michael Scott
##DESCRIPTION=Pink gemmy anhedral fragment found as an inclusion in leucophoenicite (R060308)
##STATUS=The identification of this mineral has been confirmed by single-crystal X-ray diffraction.
##URL=rruff.info/R150125
8.930109e+001, 0.000000e+000
8.978320e+001, 5.321359e+002
9.026532e+001, 5.302684e+002
9.074744e+001, 5.308320e+002
9.122955e+001, 5.354758e+002
9.171167e+001, 5.407613e+002
9.219379e+001, 5.424059e+002
9.267590e+001, 5.409398e+002
9.315802e+001, 5.371145e+002
9.364014e+001, 5.300024e+002
9.412225e+001, 5.209459e+002
9.460437e+001, 5.137969e+002
9.508649e+001, 5.107700e+002
9.556860e+001, 5.094026e+002
9.605072e+001, 5.037644e+002
9.653284e+001, 4.940948e+002
9.701495e+001, 4.836196e+002
9.749707e+001, 4.750074e+002
9.797919e+001, 4.681359e+002
9.846130e+001, 4.624045e+002
9.894342e+001, 4.578021e+002
9.942554e+001, 4.542152e+002
9.990765e+001, 4.506870e+002
1.003898e+002, 4.473475e+002
1.008719e+002, 4.437836e+002
1.013540e+002, 4.389899e+002
1.018361e+002, 4.323015e+002
1.023182e+002, 4.266727e+002
1.028004e+002, 4.235601e+002
1.032825e+002, 4.239232e+002
1.037646e+002, 4.226349e+002
1.042467e+002, 4.189893e+002
1.047288e+002, 4.141596e+002
1.052109e+002, 4.107723e+002
1.056931e+002, 4.085423e+002
1.061752e+002, 4.079518e+002
1.066573e+002, 4.094010e+002
1.071394e+002, 4.151120e+002
1.076215e+002, 4.191225e+002
1.081036e+002, 4.215425e+002
1.085858e+002, 4.223555e+002
1.090679e+002, 4.210557e+002
1.095500e+002, 4.155355e+002
1.100321e+002, 4.095209e+002
1.105142e+002, 4.050282e+002
1.109963e+002, 4.027184e+002
1.114785e+002, 4.011184e+002
1.119606e+002, 4.001830e+002
1.124427e+002, 3.998859e+002
1.129248e+002, 3.999185e+002
1.134069e+002, 4.000441e+002
1.138890e+002, 4.005547e+002
1.143712e+002, 4.016903e+002
1.148533e+002, 4.041400e+002
1.153354e+002, 4.066172e+002
1.158175e+002, 4.087601e+002
1.162996e+002, 4.105791e+002
1.167817e+002, 4.120988e+002
1.172639e+002, 4.136157e+002
1.177460e+002, 4.147995e+002
1.182281e+002, 4.152279e+002
1.187102e+002, 4.141095e+002
1.191923e+002, 4.126364e+002
1.196744e+002, 4.114277e+002
1.201566e+002, 4.105072e+002
1.206387e+002, 4.099987e+002
1.211208e+002, 4.097305e+002
1.216029e+002, 4.099062e+002
1.220850e+002, 4.109629e+002
1.225671e+002, 4.132746e+002
1.230493e+002, 4.164908e+002
1.235314e+002, 4.207180e+002
1.240135e+002, 4.267293e+002
1.244956e+002, 4.318422e+002
1.249777e+002, 4.326050e+002
1.254598e+002, 4.299073e+002
1.259420e+002, 4.271002e+002
1.264241e+002, 4.262472e+002
1.269062e+002, 4.267722e+002
1.273883e+002, 4.276016e+002
1.278704e+002, 4.283935e+002
1.283525e+002, 4.295428e+002
1.288347e+002, 4.319989e+002
1.293168e+002, 4.356994e+002
1.297989e+002, 4.393077e+002
1.302810e+002, 4.415074e+002
1.307631e+002, 4.426381e+002
1.312452e+002, 4.442526e+002
1.317274e+002, 4.470847e+002
1.322095e+002, 4.504933e+002
1.326916e+002, 4.526739e+002
1.331737e+002, 4.535446e+002
1.336558e+002, 4.538523e+002
1.341379e+002, 4.540976e+002
1.346201e+002, 4.542924e+002
1.351022e+002, 4.550365e+002
1.355843e+002, 4.567227e+002
1.360664e+002, 4.591920e+002
1.365485e+002, 4.611577e+002
1.370306e+002, 4.625529e+002
1.375128e+002, 4.636198e+002
1.379949e+002, 4.645682e+002
1.384770e+002, 4.653112e+002
1.389591e+002, 4.664210e+002
1.394412e+002, 4.685685e+002
1.399233e+002, 4.719563e+002
1.404055e+002, 4.732003e+002
1.408876e+002, 4.719089e+002
1.413697e+002, 4.688329e+002
1.418518e+002, 4.649832e+002
1.423339e+002, 4.599415e+002
1.428160e+002, 4.550944e+002
1.432982e+002, 4.509865e+002
1.437803e+002, 4.479182e+002
1.442624e+002, 4.447278e+002
1.447445e+002, 4.413241e+002
1.452266e+002, 4.378265e+002
1.457087e+002, 4.346467e+002
1.461909e+002, 4.317110e+002
1.466730e+002, 4.291269e+002
1.471551e+002, 4.269958e+002
1.476372e+002, 4.261633e+002
1.481193e+002, 4.243779e+002
1.486014e+002, 4.209774e+002
1.490836e+002, 4.165429e+002
1.495657e+002, 4.129420e+002
1.500478e+002, 4.108482e+002
1.505299e+002, 4.091244e+002
1.510120e+002, 4.072647e+002
1.514941e+002, 4.048925e+002
1.519763e+002, 4.028418e+002
1.524584e+002, 4.014468e+002
1.529405e+002, 4.005061e+002
1.534226e+002, 3.989866e+002
1.539047e+002, 3.958603e+002
1.543868e+002, 3.927474e+002
1.548690e+002, 3.905302e+002
1.553511e+002, 3.913080e+002
1.558332e+002, 3.908537e+002
1.563153e+002, 3.878369e+002
1.567974e+002, 3.825947e+002
1.572795e+002, 3.778859e+002
1.577617e+002, 3.743827e+002
1.582438e+002, 3.715900e+002
1.587259e+002, 3.691512e+002
1.592080e+002, 3.672635e+002
1.596901e+002, 3.654640e+002
1.601722e+002, 3.635891e+002
1.606544e+002, 3.616491e+002
1.611365e+002, 3.598471e+002
1.616186e+002, 3.579369e+002
1.621007e+002, 3.563382e+002
1.625828e+002, 3.553927e+002
1.630649e+002, 3.562032e+002
1.635471e+002, 3.568792e+002
1.640292e+002, 3.563373e+002
1.645113e+002, 3.545367e+002
1.649934e+002, 3.528221e+002
1.654755e+002, 3.520213e+002
1.659576e+002, 3.516398e+002
1.664398e+002, 3.510773e+002
1.669219e+002, 3.498318e+002
1.674040e+002, 3.485049e+002
1.678861e+002, 3.475292e+002
1.683682e+002, 3.469341e+002
1.688503e+002, 3.464181e+002
1.693325e+002, 3.455854e+002
1.698146e+002, 3.447263e+002
1.702967e+002, 3.443177e+002
1.707788e+002, 3.452135e+002
1.712609e+002, 3.462909e+002
1.717430e+002, 3.465099e+002
1.722252e+002, 3.457679e+002
1.727073e+002, 3.445685e+002
1.731894e+002, 3.429101e+002
1.736715e+002, 3.410575e+002
1.741536e+002, 3.396545e+002
1.746357e+002, 3.391996e+002
1.751179e+002, 3.392524e+002
1.756000e+002, 3.394142e+002
1.760821e+002, 3.397169e+002
1.765642e+002, 3.397631e+002
1.770463e+002, 3.388271e+002
1.775284e+002, 3.372279e+002
1.780106e+002, 3.359594e+002
1.784927e+002, 3.359752e+002
1.789748e+002, 3.365688e+002
1.794569e+002, 3.364672e+002
1.799390e+002, 3.354347e+002
1.804211e+002, 3.341579e+002
1.809033e+002, 3.334486e+002
1.813854e+002, 3.332103e+002
1.818675e+002, 3.329951e+002
1.823496e+002, 3.324406e+002
1.828317e+002, 3.317256e+002
1.833138e+002, 3.312437e+002
1.837960e+002, 3.310499e+002
1.842781e+002, 3.310680e+002
1.847602e+002, 3.313122e+002
1.852423e+002, 3.317470e+002
1.857244e+002, 3.320683e+002
1.862065e+002, 3.319835e+002
1.866887e+002, 3.316087e+002
1.871708e+002, 3.314040e+002
1.876529e+002, 3.314508e+002
1.881350e+002, 3.316080e+002
1.886171e+002, 3.316572e+002
1.890992e+002, 3.315984e+002
1.895814e+002, 3.314700e+002
1.900635e+002, 3.311457e+002
1.905456e+002, 3.306987e+002
1.910277e+002, 3.307161e+002
1.915098e+002, 3.313871e+002
1.919919e+002, 3.323578e+002
1.924741e+002, 3.329456e+002
1.929562e+002, 3.331461e+002
1.934383e+002, 3.330612e+002
1.939204e+002, 3.325575e+002
1.944025e+002, 3.316780e+002
1.948846e+002, 3.312280e+002
1.953668e+002, 3.314117e+002
1.958489e+002, 3.319500e+002
1.963310e+002, 3.321823e+002
1.968131e+002, 3.320820e+002
1.972952e+002, 3.318702e+002
1.977773e+002, 3.316078e+002
1.982595e+002, 3.312885e+002
1.987416e+002, 3.312409e+002
1.992237e+002, 3.315756e+002
1.997058e+002, 3.321505e+002
2.001879e+002, 3.325399e+002
2.006700e+002, 3.327003e+002
2.011522e+002, 3.329015e+002
2.016343e+002, 3.334679e+002
2.021164e+002, 3.344821e+002
2.025985e+002, 3.349917e+002
2.030806e+002, 3.347519e+002
2.035627e+002, 3.340014e+002
2.040449e+002, 3.335141e+002
2.045270e+002, 3.333541e+002
2.050091e+002, 3.332393e+002
2.054912e+002, 3.328939e+002
2.059733e+002, 3.322211e+002
2.064554e+002, 3.319225e+002
2.069376e+002, 3.322006e+002
2.074197e+002, 3.328750e+002
2.079018e+002, 3.332993e+002
2.083839e+002, 3.334746e+002
2.088660e+002, 3.334012e+002
2.093481e+002, 3.329672e+002
2.098303e+002, 3.320184e+002
2.103124e+002, 3.314244e+002
2.107945e+002, 3.313517e+002
2.112766e+002, 3.316994e+002
2.117587e+002, 3.320336e+002
2.122408e+002, 3.323062e+002
2.127230e+002, 3.326740e+002
2.132051e+002, 3.333477e+002
2.136872e+002, 3.345457e+002
2.141693e+002, 3.352599e+002
2.146514e+002, 3.352607e+002
2.151335e+002, 3.346843e+002
2.156157e+002, 3.341448e+002
2.160978e+002, 3.335701e+002
2.165799e+002, 3.331378e+002
2.170620e+002, 3.330097e+002
2.175441e+002, 3.333379e+002
2.180262e+002, 3.335202e+002
2.185084e+002, 3.335159e+002
2.189905e+002, 3.333194e+002
2.194726e+002, 3.328756e+002
2.199547e+002, 3.320207e+002
2.204368e+002, 3.311928e+002
2.209189e+002, 3.306589e+002
2.214011e+002, 3.304148e+002
2.218832e+002, 3.305289e+002
2.223653e+002, 3.312568e+002
2.228474e+002, 3.323611e+002
2.233295e+002, 3.327016e+002
2.238116e+002, 3.318561e+002
2.242938e+002, 3.309093e+002
2.247759e+002, 3.305253e+002
2.252580e+002, 3.309200e+002
2.257401e+002, 3.313688e+002
2.262222e+002, 3.318725e+002
2.267043e+002, 3.323883e+002
2.271865e+002, 3.327569e+002
2.276686e+002, 3.329174e+002
2.281507e+002, 3.330043e+002
2.286328e+002, 3.330560e+002
2.291149e+002, 3.329495e+002
2.295970e+002, 3.331139e+002
2.300792e+002, 3.337102e+002
2.305613e+002, 3.345995e+002
2.310434e+002, 3.351647e+002
2.315255e+002, 3.351070e+002
2.320076e+002, 3.351656e+002
2.324897e+002, 3.358218e+002
2.329719e+002, 3.375714e+002
2.334540e+002, 3.387787e+002
2.339361e+002, 3.391067e+002
2.344182e+002, 3.388775e+002
2.349003e+002, 3.392529e+002
2.353824e+002, 3.405734e+002
2.358646e+002, 3.420122e+002
2.363467e+002, 3.431532e+002
2.368288e+002, 3.438272e+002
2.373109e+002, 3.445630e+002
2.377930e+002, 3.453539e+002
2.382751e+002, 3.462129e+002
2.387573e+002, 3.471807e+002
2.392394e+002, 3.483595e+002
2.397215e+002, 3.494854e+002
2.402036e+002, 3.504434e+002
2.406857e+002, 3.511779e+002
2.411678e+002, 3.518548e+002
2.416500e+002, 3.524798e+002
2.421321e+002, 3.530387e+002
2.426142e+002, 3.534662e+002
2.430963e+002, 3.535332e+002
2.435784e+002, 3.538082e+002
2.440605e+002, 3.546285e+002
2.445427e+002, 3.564661e+002
2.450248e+002, 3.576223e+002
2.455069e+002, 3.578203e+002
2.459890e+002, 3.574536e+002
2.464711e+002, 3.573871e+002
2.469532e+002, 3.577841e+002
2.474354e+002, 3.582212e+002
2.479175e+002, 3.585366e+002
2.483996e+002, 3.586950e+002
2.488817e+002, 3.588945e+002
2.493638e+002, 3.592711e+002
2.498459e+002, 3.596214e+002
2.503281e+002, 3.594874e+002
2.508102e+002, 3.584485e+002
2.512923e+002, 3.576728e+002
2.517744e+002, 3.576561e+002
2.522565e+002, 3.586671e+002
2.527386e+002, 3.593041e+002
2.532208e+002, 3.594533e+002
2.537029e+002, 3.593126e+002
2.541850e+002, 3.591920e+002
2.546671e+002, 3.591342e+002
2.551492e+002, 3.589979e+002
2.556313e+002, 3.586892e+002
2.561135e+002, 3.581487e+002
2.565956e+002, 3.577953e+002
2.570777e+002, 3.576120e+002
2.575598e+002, 3.576219e+002
2.580419e+002, 3.579710e+002
2.585240e+002, 3.589999e+002
2.590062e+002, 3.595579e+002
2.594883e+002, 3.591722e+002
2.599704e+002, 3.577655e+002
2.604525e+002, 3.566939e+002
2.609346e+002, 3.560118e+002
2.614167e+002, 3.556138e+002
2.618989e+002, 3.554662e+002
2.623810e+002, 3.557610e+002
2.628631e+002, 3.557937e+002
2.633452e+002, 3.552791e+002
2.638273e+002, 3.542213e+002
2.643094e+002, 3.536549e+002
2.647916e+002, 3.537080e+002
2.652737e+002, 3.540453e+002
2.657558e+002, 3.543957e+002
2.662379e+002, 3.548135e+002
2.667200e+002, 3.550669e+002
2.672021e+002, 3.550889e+002
2.676843e+002, 3.548972e+002
2.681664e+002, 3.546535e+002
2.686485e+002, 3.543300e+002
2.691306e+002, 3.540056e+002
2.696127e+002, 3.536423e+002
2.700948e+002, 3.531034e+002
2.705770e+002, 3.531822e+002
2.710591e+002, 3.542894e+002
2.715412e+002, 3.560869e+002
2.720233e+002, 3.569042e+002
2.725054e+002, 3.564888e+002
2.729875e+002, 3.557227e+002
2.734697e+002, 3.552364e+002
2.739518e+002, 3.550817e+002
2.744339e+002, 3.548246e+002
2.749160e+002, 3.544077e+002
2.753981e+002, 3.538631e+002
2.758802e+002, 3.531866e+002
2.763624e+002, 3.523027e+002
2.768445e+002, 3.516378e+002
2.773266e+002, 3.515894e+002
2.778087e+002, 3.522154e+002
2.782908e+002, 3.526330e+002
2.787729e+002, 3.527791e+002
2.792551e+002, 3.526766e+002
2.797372e+002, 3.523226e+002
2.802193e+002, 3.516877e+002
2.807014e+002, 3.509928e+002
2.811835e+002, 3.502710e+002
2.816656e+002, 3.495269e+002
2.821478e+002, 3.491781e+002
2.826299e+002, 3.494308e+002
2.831120e+002, 3.497012e+002
2.835941e+002, 3.487860e+002
2.840762e+002, 3.466141e+002
2.845583e+002, 3.445961e+002
2.850405e+002, 3.433713e+002
2.855226e+002, 3.428816e+002
2.860047e+002, 3.427031e+002
2.864868e+002, 3.429299e+002
2.869689e+002, 3.431423e+002
2.874510e+002, 3.425694e+002
2.879332e+002, 3.412614e+002
2.884153e+002, 3.402780e+002
2.888974e+002, 3.402900e+002
2.893795e+002, 3.409765e+002
2.898616e+002, 3.410707e+002
2.903438e+002, 3.405080e+002
2.908259e+002, 3.397933e+002
2.913080e+002, 3.396110e+002
2.917901e+002, 3.398395e+002
2.922722e+002, 3.397167e+002
2.927543e+002, 3.388198e+002
2.932365e+002, 3.374933e+002
2.937186e+002, 3.365444e+002
2.942007e+002, 3.359848e+002
2.946828e+002, 3.355772e+002
2.951649e+002, 3.350436e+002
2.956470e+002, 3.344820e+002
2.961292e+002, 3.342433e+002
2.966113e+002, 3.346017e+002
2.970934e+002, 3.351298e+002
2.975755e+002, 3.350804e+002
2.980576e+002, 3.344987e+002
2.985397e+002, 3.338729e+002
2.990219e+002, 3.335160e+002
2.995040e+002, 3.333770e+002
2.999861e+002, 3.333573e+002
3.004682e+002, 3.334554e+002
3.009503e+002, 3.336384e+002
3.014324e+002, 3.339834e+002
3.019146e+002, 3.344247e+002
3.023967e+002, 3.346919e+002
3.028788e+002, 3.344403e+002
3.033609e+002, 3.339646e+002
3.038430e+002, 3.336933e+002
3.043251e+002, 3.337031e+002
3.048073e+002, 3.338466e+002
3.052894e+002, 3.340177e+002
3.057715e+002, 3.342152e+002
3.062536e+002, 3.344449e+002
3.067357e+002, 3.348006e+002
3.072178e+002, 3.351324e+002
3.077000e+002, 3.352245e+002
3.081821e+002, 3.350287e+002
3.086642e+002, 3.348590e+002
3.091463e+002, 3.350441e+002
3.096284e+002, 3.353863e+002
3.101105e+002, 3.355822e+002
3.105927e+002, 3.353441e+002
3.110748e+002, 3.350236e+002
3.115569e+002, 3.349193e+002
3.120390e+002, 3.350349e+002
3.125211e+002, 3.350477e+002
3.130032e+002, 3.346954e+002
3.134854e+002, 3.341806e+002
3.139675e+002, 3.337224e+002
3.144496e+002, 3.335864e+002
3.149317e+002, 3.333613e+002
3.154138e+002, 3.326886e+002
3.158959e+002, 3.316743e+002
3.163781e+002, 3.309294e+002
3.168602e+002, 3.310443e+002
3.173423e+002, 3.313554e+002
3.178244e+002, 3.313701e+002
3.183065e+002, 3.307880e+002
3.187886e+002, 3.301758e+002
3.192708e+002, 3.297383e+002
3.197529e+002, 3.294160e+002
3.202350e+002, 3.290403e+002
3.207171e+002, 3.284965e+002
3.211992e+002, 3.279351e+002
3.216813e+002, 3.274653e+002
3.221635e+002, 3.272425e+002
3.226456e+002, 3.267732e+002
3.231277e+002, 3.255699e+002
3.236098e+002, 3.241165e+002
3.240919e+002, 3.232210e+002
3.245740e+002, 3.237369e+002
3.250562e+002, 3.241711e+002
3.255383e+002, 3.239752e+002
3.260204e+002, 3.229021e+002
3.265025e+002, 3.221143e+002
3.269846e+002, 3.219998e+002
3.274667e+002, 3.220840e+002
3.279489e+002, 3.218608e+002
3.284310e+002, 3.210690e+002
3.289131e+002, 3.202650e+002
3.293952e+002, 3.194741e+002
3.298773e+002, 3.186941e+002
3.303594e+002, 3.181437e+002
3.308416e+002, 3.180633e+002
3.313237e+002, 3.180179e+002
3.318058e+002, 3.176552e+002
3.322879e+002, 3.164763e+002
3.327700e+002, 3.158503e+002
3.332521e+002, 3.161201e+002
3.337343e+002, 3.170590e+002
3.342164e+002, 3.175781e+002
3.346985e+002, 3.175641e+002
3.351806e+002, 3.172924e+002
3.356627e+002, 3.168766e+002
3.361448e+002, 3.162762e+002
3.366270e+002, 3.156123e+002
3.371091e+002, 3.147276e+002
3.375912e+002, 3.139093e+002
3.380733e+002, 3.138900e+002
3.385554e+002, 3.149707e+002
3.390375e+002, 3.158789e+002
3.395197e+002, 3.160215e+002
3.400018e+002, 3.153488e+002
3.404839e+002, 3.148247e+002
3.409660e+002, 3.144512e+002
3.414481e+002, 3.142426e+002
3.419302e+002, 3.143242e+002
3.424124e+002, 3.147296e+002
3.428945e+002, 3.149461e+002
3.433766e+002, 3.147524e+002
3.438587e+002, 3.142496e+002
3.443408e+002, 3.138676e+002
3.448229e+002, 3.136058e+002
3.453051e+002, 3.134794e+002
3.457872e+002, 3.135988e+002
3.462693e+002, 3.139128e+002
3.467514e+002, 3.140658e+002
3.472335e+002, 3.139447e+002
3.477156e+002, 3.136809e+002
3.481978e+002, 3.134600e+002
3.486799e+002, 3.132939e+002
3.491620e+002, 3.133018e+002
3.496441e+002, 3.137694e+002
3.501262e+002, 3.144627e+002
3.506083e+002, 3.148116e+002
3.510905e+002, 3.147254e+002
3.515726e+002, 3.143900e+002
3.520547e+002, 3.138069e+002
3.525368e+002, 3.131106e+002
3.530189e+002, 3.127111e+002
3.535010e+002, 3.128539e+002
3.539832e+002, 3.133857e+002
3.544653e+002, 3.142798e+002
3.549474e+002, 3.155600e+002
3.554295e+002, 3.166650e+002
3.559116e+002, 3.170360e+002
3.563937e+002, 3.169743e+002
3.568759e+002, 3.169277e+002
3.573580e+002, 3.169890e+002
3.578401e+002, 3.171787e+002
3.583222e+002, 3.176108e+002
3.588043e+002, 3.182379e+002
3.592864e+002, 3.187518e+002
3.597686e+002, 3.187469e+002
3.602507e+002, 3.186874e+002
3.607328e+002, 3.189969e+002
3.612149e+002, 3.199968e+002
3.616970e+002, 3.209900e+002
3.621791e+002, 3.216881e+002
3.626613e+002, 3.221706e+002
3.631434e+002, 3.226240e+002
3.636255e+002, 3.230372e+002
3.641076e+002, 3.234844e+002
3.645897e+002, 3.240189e+002
3.650718e+002, 3.246691e+002
3.655540e+002, 3.252838e+002
3.660361e+002, 3.258820e+002
3.665182e+002, 3.264150e+002
3.670003e+002, 3.268248e+002
3.674824e+002, 3.267617e+002
3.679645e+002, 3.269341e+002
3.684467e+002, 3.276808e+002
3.689288e+002, 3.290367e+002
3.694109e+002, 3.299454e+002
3.698930e+002, 3.300362e+002
3.703751e+002, 3.299762e+002
3.708572e+002, 3.301931e+002
3.713394e+002, 3.306281e+002
3.718215e+002, 3.314737e+002
3.723036e+002, 3.330436e+002
3.727857e+002, 3.350277e+002
3.732678e+002, 3.362401e+002
3.737499e+002, 3.361609e+002
3.742321e+002, 3.362420e+002
3.747142e+002, 3.372451e+002
3.751963e+002, 3.394616e+002
3.756784e+002, 3.413716e+002
3.761605e+002, 3.429142e+002
3.766426e+002, 3.442036e+002
3.771248e+002, 3.453040e+002
3.776069e+002, 3.461797e+002
3.780890e+002, 3.471277e+002
3.785711e+002, 3.481577e+002
3.790532e+002, 3.493216e+002
3.795353e+002, 3.510518e+002
3.800175e+002, 3.534726e+002
3.804996e+002, 3.559218e+002
3.809817e+002, 3.577057e+002
3.814638e+002, 3.588956e+002
3.819459e+002, 3.601125e+002
3.824280e+002, 3.613893e+002
3.829102e+002, 3.628621e+002
3.833923e+002, 3.649874e+002
3.838744e+002, 3.676989e+002
3.843565e+002, 3.701626e+002
3.848386e+002, 3.715471e+002
3.853207e+002, 3.723410e+002
3.858029e+002, 3.735382e+002
3.862850e+002, 3.753031e+002
3.867671e+002, 3.771719e+002
3.872492e+002, 3.787679e+002
3.877313e+002, 3.801187e+002
3.882134e+002, 3.812545e+002
3.886956e+002, 3.820738e+002
3.891777e+002, 3.827513e+002
3.896598e+002, 3.834935e+002
3.901419e+002, 3.842897e+002
3.906240e+002, 3.849300e+002
3.911061e+002, 3.852614e+002
3.915883e+002, 3.853945e+002
3.920704e+002, 3.854448e+002
3.925525e+002, 3.854356e+002
3.930346e+002, 3.853707e+002
3.935167e+002, 3.853837e+002
3.939988e+002, 3.853613e+002
3.944810e+002, 3.849861e+002
3.949631e+002, 3.838336e+002
3.954452e+002, 3.825451e+002
3.959273e+002, 3.813860e+002
3.964094e+002, 3.803219e+002
3.968915e+002, 3.795938e+002
3.973737e+002, 3.797985e+002
3.978558e+002, 3.801754e+002
3.983379e+002, 3.797869e+002
3.988200e+002, 3.774511e+002
3.993021e+002, 3.754886e+002
3.997842e+002, 3.744606e+002
4.002664e+002, 3.743596e+002
4.007485e+002, 3.740938e+002
4.012306e+002, 3.735150e+002
4.017127e+002, 3.729095e+002
4.021948e+002, 3.725185e+002
4.026769e+002, 3.727030e+002
4.031591e+002, 3.722724e+002
4.036412e+002, 3.709305e+002
4.041233e+002, 3.690381e+002
4.046054e+002, 3.674521e+002
4.050875e+002, 3.662581e+002
4.055696e+002, 3.651646e+002
4.060518e+002, 3.639982e+002
4.065339e+002, 3.627493e+002
4.070160e+002, 3.619124e+002
4.074981e+002, 3.615412e+002
4.079802e+002, 3.614705e+002
4.084623e+002, 3.616011e+002
4.089445e+002, 3.619328e+002
4.094266e+002, 3.622463e+002
4.099087e+002, 3.626548e+002
4.103908e+002, 3.628839e+002
4.108729e+002, 3.619721e+002
4.113550e+002, 3.599587e+002
4.118372e+002, 3.581124e+002
4.123193e+002, 3.575794e+002
4.128014e+002, 3.578563e+002
4.132835e+002, 3.576840e+002
4.137656e+002, 3.567961e+002
4.142477e+002, 3.558393e+002
4.147299e+002, 3.554210e+002
4.152120e+002, 3.554674e+002
4.156941e+002, 3.558170e+002
4.161762e+002, 3.569682e+002
4.166583e+002, 3.580033e+002
4.171404e+002, 3.578999e+002
4.176226e+002, 3.566767e+002
4.181047e+002, 3.554598e+002
4.185868e+002, 3.549193e+002
4.190689e+002, 3.546764e+002
4.195510e+002, 3.543758e+002
4.200331e+002, 3.540370e+002
4.205153e+002, 3.534724e+002
4.209974e+002, 3.524637e+002
4.214795e+002, 3.511694e+002
4.219616e+002, 3.500283e+002
4.224437e+002, 3.492716e+002
4.229258e+002, 3.485860e+002
4.234080e+002, 3.478803e+002
4.238901e+002, 3.471871e+002
4.243722e+002, 3.463331e+002
4.248543e+002, 3.450804e+002
4.253364e+002, 3.437802e+002
4.258185e+002, 3.427930e+002
4.263007e+002, 3.424296e+002
4.267828e+002, 3.419108e+002
4.272649e+002, 3.410452e+002
4.277470e+002, 3.399087e+002
4.282291e+002, 3.389982e+002
4.287112e+002, 3.384463e+002
4.291934e+002, 3.378934e+002
4.296755e+002, 3.371353e+002
4.301576e+002, 3.361552e+002
4.306397e+002, 3.350138e+002
4.311218e+002, 3.336350e+002
4.316039e+002, 3.322192e+002
4.320861e+002, 3.310587e+002
4.325682e+002, 3.301630e+002
4.330503e+002, 3.294386e+002
4.335324e+002, 3.289777e+002
4.340145e+002, 3.286363e+002
4.344966e+002, 3.277896e+002
4.349788e+002, 3.264226e+002
4.354609e+002, 3.251067e+002
4.359430e+002, 3.244473e+002
4.364251e+002, 3.242152e+002
4.369072e+002, 3.237002e+002
4.373893e+002, 3.226341e+002
4.378715e+002, 3.216071e+002
4.383536e+002, 3.215182e+002
4.388357e+002, 3.220504e+002
4.393178e+002, 3.223194e+002
4.397999e+002, 3.215918e+002
4.402820e+002, 3.205619e+002
4.407642e+002, 3.199059e+002
4.412463e+002, 3.196526e+002
4.417284e+002, 3.193310e+002
4.422105e+002, 3.184250e+002
4.426926e+002, 3.174320e+002
4.431747e+002, 3.168419e+002
4.436569e+002, 3.172025e+002
4.441390e+002, 3.174740e+002
4.446211e+002, 3.174058e+002
4.451032e+002, 3.170116e+002
4.455853e+002, 3.163340e+002
4.460674e+002, 3.147434e+002
4.465496e+002, 3.134365e+002
4.470317e+002, 3.129900e+002
4.475138e+002, 3.138143e+002
4.479959e+002, 3.142114e+002
4.484780e+002, 3.139313e+002
4.489601e+002, 3.134151e+002
4.494423e+002, 3.130938e+002
4.499244e+002, 3.130943e+002
4.504065e+002, 3.130280e+002
4.508886e+002, 3.127354e+002
4.513707e+002, 3.123419e+002
4.518528e+002, 3.124766e+002
4.523350e+002, 3.133529e+002
4.528171e+002, 3.141009e+002
4.532992e+002, 3.141039e+002
4.537813e+002, 3.133424e+002
4.542634e+002, 3.130493e+002
4.547455e+002, 3.133237e+002
4.552277e+002, 3.137983e+002
4.557098e+002, 3.140502e+002
4.561919e+002, 3.140886e+002
4.566740e+002, 3.140029e+002
4.571561e+002, 3.137677e+002
4.576382e+002, 3.134720e+002
4.581204e+002, 3.132760e+002
4.586025e+002, 3.131713e+002
4.590846e+002, 3.130987e+002
4.595667e+002, 3.130047e+002
4.600488e+002, 3.129286e+002
4.605309e+002, 3.129272e+002
4.610131e+002, 3.130193e+002
4.614952e+002, 3.131487e+002
4.619773e+002, 3.133109e+002
4.624594e+002, 3.134772e+002
4.629415e+002, 3.136074e+002
4.634236e+002, 3.135706e+002
4.639058e+002, 3.135989e+002
4.643879e+002, 3.139832e+002
4.648700e+002, 3.146370e+002
4.653521e+002, 3.148332e+002
4.658342e+002, 3.138328e+002
4.663163e+002, 3.127337e+002
4.667985e+002, 3.121659e+002
4.672806e+002, 3.125779e+002
4.677627e+002, 3.127843e+002
4.682448e+002, 3.125971e+002
4.687269e+002, 3.122626e+002
4.692090e+002, 3.121487e+002
4.696912e+002, 3.124621e+002
4.701733e+002, 3.126008e+002
4.706554e+002, 3.123193e+002
4.711375e+002, 3.116934e+002
4.716196e+002, 3.115132e+002
4.721017e+002, 3.119015e+002
4.725839e+002, 3.123881e+002
4.730660e+002, 3.127216e+002
4.735481e+002, 3.129010e+002
4.740302e+002, 3.127805e+002
4.745123e+002, 3.122792e+002
4.749944e+002, 3.116763e+002
4.754766e+002, 3.113619e+002
4.759587e+002, 3.113171e+002
4.764408e+002, 3.114071e+002
4.769229e+002, 3.116328e+002
4.774050e+002, 3.119346e+002
4.778871e+002, 3.122242e+002
4.783693e+002, 3.125042e+002
4.788514e+002, 3.127750e+002
4.793335e+002, 3.130129e+002
4.798156e+002, 3.132541e+002
4.802977e+002, 3.135428e+002
4.807798e+002, 3.138933e+002
4.812620e+002, 3.142569e+002
4.817441e+002, 3.146040e+002
4.822262e+002, 3.149400e+002
4.827083e+002, 3.152743e+002
4.831904e+002, 3.155127e+002
4.836725e+002, 3.158357e+002
4.841547e+002, 3.164789e+002
4.846368e+002, 3.173841e+002
4.851189e+002, 3.178365e+002
4.856010e+002, 3.169466e+002
4.860831e+002, 3.161996e+002
4.865652e+002, 3.164291e+002
4.870474e+002, 3.184997e+002
4.875295e+002, 3.196604e+002
4.880116e+002, 3.195110e+002
4.884937e+002, 3.187343e+002
4.889758e+002, 3.182286e+002
4.894579e+002, 3.179845e+002
4.899401e+002, 3.180823e+002
4.904222e+002, 3.187172e+002
4.909043e+002, 3.196862e+002
4.913864e+002, 3.200433e+002
4.918685e+002, 3.197437e+002
4.923506e+002, 3.191353e+002
4.928328e+002, 3.181933e+002
4.933149e+002, 3.170831e+002
4.937970e+002, 3.166363e+002
4.942791e+002, 3.169935e+002
4.947612e+002, 3.176238e+002
4.952433e+002, 3.180586e+002
4.957255e+002, 3.183003e+002
4.962076e+002, 3.183377e+002
4.966897e+002, 3.178704e+002
4.971718e+002, 3.174925e+002
4.976539e+002, 3.179877e+002
4.981360e+002, 3.191314e+002
4.986182e+002, 3.200610e+002
4.991003e+002, 3.201757e+002
4.995824e+002, 3.200110e+002
5.000645e+002, 3.198978e+002
5.005466e+002, 3.198641e+002
5.010287e+002, 3.199295e+002
5.015109e+002, 3.202966e+002
5.019930e+002, 3.206733e+002
5.024751e+002, 3.207628e+002
5.029572e+002, 3.201010e+002
5.034393e+002, 3.196590e+002
5.039214e+002, 3.197009e+002
5.044036e+002, 3.200490e+002
5.048857e+002, 3.200633e+002
5.053678e+002, 3.195552e+002
5.058499e+002, 3.190368e+002
5.063320e+002, 3.187022e+002
5.068141e+002, 3.185588e+002
5.072963e+002, 3.185112e+002
5.077784e+002, 3.185638e+002
5.082605e+002, 3.187049e+002
5.087426e+002, 3.190052e+002
5.092247e+002, 3.194426e+002
5.097068e+002, 3.196737e+002
5.101890e+002, 3.196215e+002
5.106711e+002, 3.193581e+002
5.111532e+002, 3.188047e+002
5.116353e+002, 3.180669e+002
5.121174e+002, 3.176653e+002
5.125995e+002, 3.180295e+002
5.130817e+002, 3.187835e+002
5.135638e+002, 3.196846e+002
5.140459e+002, 3.206917e+002
5.145280e+002, 3.212542e+002
5.150101e+002, 3.207168e+002
5.154922e+002, 3.197297e+002
5.159744e+002, 3.188942e+002
5.164565e+002, 3.183529e+002
5.169386e+002, 3.179373e+002
5.174207e+002, 3.175683e+002
5.179028e+002, 3.172987e+002
5.183849e+002, 3.172135e+002
5.188671e+002, 3.177119e+002
5.193492e+002, 3.179818e+002
5.198313e+002, 3.178893e+002
5.203134e+002, 3.174356e+002
5.207955e+002, 3.165372e+002
5.212776e+002, 3.147246e+002
5.217598e+002, 3.131512e+002
5.222419e+002, 3.126200e+002
5.227240e+002, 3.134091e+002
5.232061e+002, 3.136478e+002
5.236882e+002, 3.131286e+002
5.241703e+002, 3.124407e+002
5.246525e+002, 3.125115e+002
5.251346e+002, 3.132777e+002
5.256167e+002, 3.136895e+002
5.260988e+002, 3.133784e+002
5.265809e+002, 3.126562e+002
5.270630e+002, 3.119481e+002
5.275452e+002, 3.112883e+002
5.280273e+002, 3.108397e+002
5.285094e+002, 3.106270e+002
5.289915e+002, 3.107131e+002
5.294736e+002, 3.113764e+002
5.299557e+002, 3.126669e+002
5.304379e+002, 3.136367e+002
5.309200e+002, 3.133890e+002
5.314021e+002, 3.127029e+002
5.318842e+002, 3.123424e+002
5.323663e+002, 3.125829e+002
5.328484e+002, 3.130244e+002
5.333306e+002, 3.136481e+002
5.338127e+002, 3.143976e+002
5.342948e+002, 3.151447e+002
5.347769e+002, 3.160721e+002
5.352590e+002, 3.167870e+002
5.357411e+002, 3.172240e+002
5.362233e+002, 3.173853e+002
5.367054e+002, 3.171714e+002
5.371875e+002, 3.163316e+002
5.376696e+002, 3.156183e+002
5.381517e+002, 3.156466e+002
5.386339e+002, 3.165002e+002
5.391160e+002, 3.169680e+002
5.395981e+002, 3.169154e+002
5.400802e+002, 3.166725e+002
5.405623e+002, 3.166976e+002
5.410444e+002, 3.169359e+002
5.415266e+002, 3.170529e+002
5.420087e+002, 3.168166e+002
5.424908e+002, 3.165512e+002
5.429729e+002, 3.168143e+002
5.434550e+002, 3.174851e+002
5.439371e+002, 3.180934e+002
5.444193e+002, 3.183870e+002
5.449014e+002, 3.184973e+002
5.453835e+002, 3.185435e+002
5.458656e+002, 3.185383e+002
5.463477e+002, 3.183799e+002
5.468298e+002, 3.177809e+002
5.473120e+002, 3.171434e+002
5.477941e+002, 3.168067e+002
5.482762e+002, 3.171383e+002
5.487583e+002, 3.173327e+002
5.492404e+002, 3.172112e+002
5.497225e+002, 3.169503e+002
5.502047e+002, 3.168468e+002
5.506868e+002, 3.169307e+002
5.511689e+002, 3.171283e+002
5.516510e+002, 3.175015e+002
5.521331e+002, 3.179896e+002
5.526152e+002, 3.180957e+002
5.530974e+002, 3.177354e+002
5.535795e+002, 3.174335e+002
5.540616e+002, 3.175713e+002
5.545437e+002, 3.180892e+002
5.550258e+002, 3.186889e+002
5.555079e+002, 3.193919e+002
5.559901e+002, 3.199645e+002
5.564722e+002, 3.198553e+002
5.569543e+002, 3.194726e+002
5.574364e+002, 3.197487e+002
5.579185e+002, 3.214053e+002
5.584006e+002, 3.230625e+002
5.588828e+002, 3.233311e+002
5.593649e+002, 3.227597e+002
5.598470e+002, 3.226288e+002
5.603291e+002, 3.240802e+002
5.608112e+002, 3.255001e+002
5.612933e+002, 3.260202e+002
5.617755e+002, 3.255930e+002
5.622576e+002, 3.254861e+002
5.627397e+002, 3.259617e+002
5.632218e+002, 3.267251e+002
5.637039e+002, 3.276512e+002
5.641860e+002, 3.287607e+002
5.646682e+002, 3.300446e+002
5.651503e+002, 3.317159e+002
5.656324e+002, 3.333214e+002
5.661145e+002, 3.341340e+002
5.665966e+002, 3.340602e+002
5.670787e+002, 3.341955e+002
5.675609e+002, 3.347809e+002
5.680430e+002, 3.357150e+002
5.685251e+002, 3.368207e+002
5.690072e+002, 3.380962e+002
5.694893e+002, 3.394212e+002
5.699714e+002, 3.407044e+002
5.704536e+002, 3.420265e+002
5.709357e+002, 3.436759e+002
5.714178e+002, 3.456058e+002
5.718999e+002, 3.471972e+002
5.723820e+002, 3.478301e+002
5.728641e+002, 3.480468e+002
5.733463e+002, 3.483223e+002
5.738284e+002, 3.488219e+002
5.743105e+002, 3.491616e+002
5.747926e+002, 3.491239e+002
5.752747e+002, 3.488953e+002
5.757568e+002, 3.487141e+002
5.762390e+002, 3.488807e+002
5.767211e+002, 3.487119e+002
5.772032e+002, 3.480893e+002
5.776853e+002, 3.470775e+002
5.781674e+002, 3.459881e+002
5.786495e+002, 3.449860e+002
5.791317e+002, 3.433951e+002
5.796138e+002, 3.405723e+002
5.800959e+002, 3.367756e+002
5.805780e+002, 3.343484e+002
5.810601e+002, 3.333769e+002
5.815422e+002, 3.326201e+002
5.820244e+002, 3.308438e+002
5.825065e+002, 3.284852e+002
5.829886e+002, 3.267220e+002
5.834707e+002, 3.257572e+002
5.839528e+002, 3.249911e+002
5.844349e+002, 3.238557e+002
5.849171e+002, 3.225744e+002
5.853992e+002, 3.214829e+002
5.858813e+002, 3.210302e+002
5.863634e+002, 3.204230e+002
5.868455e+002, 3.191900e+002
5.873276e+002, 3.175352e+002
5.878098e+002, 3.160650e+002
5.882919e+002, 3.149460e+002
5.887740e+002, 3.139730e+002
5.892561e+002, 3.130924e+002
5.897382e+002, 3.123031e+002
5.902203e+002, 3.115970e+002
5.907025e+002, 3.110125e+002
5.911846e+002, 3.104536e+002
5.916667e+002, 3.098404e+002
5.921488e+002, 3.091602e+002
5.926309e+002, 3.086211e+002
5.931130e+002, 3.082628e+002
5.935952e+002, 3.079235e+002
5.940773e+002, 3.072983e+002
5.945594e+002, 3.065011e+002
5.950415e+002, 3.060250e+002
5.955236e+002, 3.061417e+002
5.960057e+002, 3.063416e+002
5.964879e+002, 3.060142e+002
5.969700e+002, 3.053287e+002
5.974521e+002, 3.046808e+002
5.979342e+002, 3.042087e+002
5.984163e+002, 3.038630e+002
5.988984e+002, 3.036944e+002
5.993806e+002, 3.036703e+002
5.998627e+002, 3.035260e+002
6.003448e+002, 3.032230e+002
6.008269e+002, 3.027589e+002
6.013090e+002, 3.020562e+002
6.017911e+002, 3.009481e+002
6.022733e+002, 3.002488e+002
6.027554e+002, 3.000053e+002
6.032375e+002, 3.001022e+002
6.037196e+002, 3.005576e+002
6.042017e+002, 3.014398e+002
6.046838e+002, 3.019846e+002
6.051660e+002, 3.020423e+002
6.056481e+002, 3.018839e+002
6.061302e+002, 3.019496e+002
6.066123e+002, 3.021898e+002
6.070944e+002, 3.023725e+002
6.075765e+002, 3.024247e+002
6.080587e+002, 3.023633e+002
6.085408e+002, 3.021260e+002
6.090229e+002, 3.017719e+002
6.095050e+002, 3.015061e+002
6.099871e+002, 3.014701e+002
6.104692e+002, 3.015262e+002
6.109514e+002, 3.015692e+002
6.114335e+002, 3.015831e+002
6.119156e+002, 3.017317e+002
6.123977e+002, 3.021155e+002
6.128798e+002, 3.025932e+002
6.133619e+002, 3.031504e+002
6.138441e+002, 3.041836e+002
6.143262e+002, 3.042392e+002
6.148083e+002, 3.028557e+002
6.152904e+002, 3.011291e+002
6.157725e+002, 3.005648e+002
6.162546e+002, 3.012426e+002
6.167368e+002, 3.017089e+002
6.172189e+002, 3.016046e+002
6.177010e+002, 3.013089e+002
6.181831e+002, 3.016324e+002
6.186652e+002, 3.024061e+002
6.191473e+002, 3.029483e+002
6.196295e+002, 3.028046e+002
6.201116e+002, 3.023474e+002
6.205937e+002, 3.018051e+002
6.210758e+002, 3.012321e+002
6.215579e+002, 3.008835e+002
6.220400e+002, 3.008705e+002
6.225222e+002, 3.011382e+002
6.230043e+002, 3.018150e+002
6.234864e+002, 3.030699e+002
6.239685e+002, 3.037849e+002
6.244506e+002, 3.033626e+002
6.249327e+002, 3.027778e+002
6.254149e+002, 3.027235e+002
6.258970e+002, 3.035225e+002
6.263791e+002, 3.038059e+002
6.268612e+002, 3.033232e+002
6.273433e+002, 3.026609e+002
6.278254e+002, 3.027548e+002
6.283076e+002, 3.035620e+002
6.287897e+002, 3.041394e+002
6.292718e+002, 3.041595e+002
6.297539e+002, 3.039904e+002
6.302360e+002, 3.042789e+002
6.307181e+002, 3.048853e+002
6.312003e+002, 3.053623e+002
6.316824e+002, 3.053083e+002
6.321645e+002, 3.051800e+002
6.326466e+002, 3.054062e+002
6.331287e+002, 3.059234e+002
6.336108e+002, 3.062639e+002
6.340930e+002, 3.060839e+002
6.345751e+002, 3.058438e+002
6.350572e+002, 3.057808e+002
6.355393e+002, 3.059422e+002
6.360214e+002, 3.060844e+002
6.365035e+002, 3.062267e+002
6.369857e+002, 3.063238e+002
6.374678e+002, 3.062909e+002
6.379499e+002, 3.060783e+002
6.384320e+002, 3.061359e+002
6.389141e+002, 3.065683e+002
6.393962e+002, 3.070491e+002
6.398784e+002, 3.069901e+002
6.403605e+002, 3.065562e+002
6.408426e+002, 3.065296e+002
6.413247e+002, 3.073690e+002
6.418068e+002, 3.082568e+002
6.422889e+002, 3.081532e+002
6.427711e+002, 3.074220e+002
6.432532e+002, 3.068847e+002
6.437353e+002, 3.070698e+002
6.442174e+002, 3.073823e+002
6.446995e+002, 3.074942e+002
6.451816e+002, 3.074551e+002
6.456638e+002, 3.076422e+002
6.461459e+002, 3.083302e+002
6.466280e+002, 3.090335e+002
6.471101e+002, 3.096368e+002
6.475922e+002, 3.101413e+002
6.480743e+002, 3.103925e+002
6.485565e+002, 3.103305e+002
6.490386e+002, 3.101529e+002
6.495207e+002, 3.098879e+002
6.500028e+002, 3.095795e+002
6.504849e+002, 3.097914e+002
6.509670e+002, 3.106429e+002
6.514492e+002, 3.114338e+002
6.519313e+002, 3.112264e+002
6.524134e+002, 3.104517e+002
6.528955e+002, 3.099305e+002
6.533776e+002, 3.099161e+002
6.538597e+002, 3.100715e+002
6.543419e+002, 3.102831e+002
6.548240e+002, 3.105070e+002
6.553061e+002, 3.106720e+002
6.557882e+002, 3.107135e+002
6.562703e+002, 3.107566e+002
6.567524e+002, 3.108020e+002
6.572346e+002, 3.108764e+002
6.577167e+002, 3.110628e+002
6.581988e+002, 3.114059e+002
6.586809e+002, 3.117755e+002
6.591630e+002, 3.121630e+002
6.596451e+002, 3.125427e+002
6.601273e+002, 3.127610e+002
6.606094e+002, 3.128142e+002
6.610915e+002, 3.127485e+002
6.615736e+002, 3.124633e+002
6.620557e+002, 3.121118e+002
6.625378e+002, 3.120251e+002
6.630200e+002, 3.122159e+002
6.635021e+002, 3.124732e+002
6.639842e+002, 3.126739e+002
6.644663e+002, 3.128543e+002
6.649484e+002, 3.130390e+002
6.654305e+002, 3.132183e+002
6.659127e+002, 3.134496e+002
6.663948e+002, 3.139356e+002
6.668769e+002, 3.143810e+002
6.673590e+002, 3.144459e+002
6.678411e+002, 3.136938e+002
6.683232e+002, 3.135356e+002
6.688054e+002, 3.143126e+002
6.692875e+002, 3.154701e+002
6.697696e+002, 3.160123e+002
6.702517e+002, 3.159277e+002
6.707338e+002, 3.157810e+002
6.712159e+002, 3.157484e+002
6.716981e+002, 3.157257e+002
6.721802e+002, 3.154712e+002
6.726623e+002, 3.150555e+002
6.731444e+002, 3.147251e+002
6.736265e+002, 3.145398e+002
6.741086e+002, 3.145485e+002
6.745908e+002, 3.148176e+002
6.750729e+002, 3.153299e+002
6.755550e+002, 3.159756e+002
6.760371e+002, 3.171259e+002
6.765192e+002, 3.180360e+002
6.770013e+002, 3.182545e+002
6.774835e+002, 3.176846e+002
6.779656e+002, 3.176012e+002
6.784477e+002, 3.183026e+002
6.789298e+002, 3.189523e+002
6.794119e+002, 3.187429e+002
6.798940e+002, 3.176605e+002
6.803762e+002, 3.176268e+002
6.808583e+002, 3.188625e+002
6.813404e+002, 3.201055e+002
6.818225e+002, 3.196553e+002
6.823046e+002, 3.183150e+002
6.827867e+002, 3.178347e+002
6.832689e+002, 3.187701e+002
6.837510e+002, 3.199477e+002
6.842331e+002, 3.207539e+002
6.847152e+002, 3.212110e+002
6.851973e+002, 3.213265e+002
6.856794e+002, 3.204855e+002
6.861616e+002, 3.200513e+002
6.866437e+002, 3.205501e+002
6.871258e+002, 3.215356e+002
6.876079e+002, 3.222193e+002
6.880900e+002, 3.224921e+002
6.885721e+002, 3.227317e+002
6.890543e+002, 3.230406e+002
6.895364e+002, 3.233589e+002
6.900185e+002, 3.235166e+002
6.905006e+002, 3.235121e+002
6.909827e+002, 3.234026e+002
6.914648e+002, 3.231233e+002
6.919470e+002, 3.228000e+002
6.924291e+002, 3.225997e+002
6.929112e+002, 3.225216e+002
6.933933e+002, 3.225635e+002
6.938754e+002, 3.226410e+002
6.943575e+002, 3.229077e+002
6.948397e+002, 3.236562e+002
6.953218e+002, 3.249808e+002
6.958039e+002, 3.257286e+002
6.962860e+002, 3.252221e+002
6.967681e+002, 3.246228e+002
6.972502e+002, 3.245479e+002
6.977324e+002, 3.251586e+002
6.982145e+002, 3.254738e+002
6.986966e+002, 3.253949e+002
6.991787e+002, 3.253042e+002
6.996608e+002, 3.256601e+002
7.001429e+002, 3.263541e+002
7.006251e+002, 3.267338e+002
7.011072e+002, 3.266063e+002
7.015893e+002, 3.267695e+002
7.020714e+002, 3.286897e+002
7.025535e+002, 3.311996e+002
7.030356e+002, 3.325471e+002
7.035178e+002, 3.317242e+002
7.039999e+002, 3.305297e+002
7.044820e+002, 3.291576e+002
7.049641e+002, 3.279702e+002
7.054462e+002, 3.275538e+002
7.059283e+002, 3.284362e+002
7.064105e+002, 3.292790e+002
7.068926e+002, 3.300146e+002
7.073747e+002, 3.305608e+002
7.078568e+002, 3.305905e+002
7.083389e+002, 3.300479e+002
7.088210e+002, 3.297777e+002
7.093032e+002, 3.301441e+002
7.097853e+002, 3.308905e+002
7.102674e+002, 3.316014e+002
7.107495e+002, 3.322582e+002
7.112316e+002, 3.327510e+002
7.117137e+002, 3.329145e+002
7.121959e+002, 3.329796e+002
7.126780e+002, 3.330878e+002
7.131601e+002, 3.332417e+002
7.136422e+002, 3.334208e+002
7.141243e+002, 3.337713e+002
7.146064e+002, 3.339952e+002
7.150886e+002, 3.339827e+002
7.155707e+002, 3.337307e+002
7.160528e+002, 3.332162e+002
7.165349e+002, 3.321557e+002
7.170170e+002, 3.315493e+002
7.174991e+002, 3.324676e+002
7.179813e+002, 3.346101e+002
7.184634e+002, 3.354058e+002
7.189455e+002, 3.347379e+002
7.194276e+002, 3.340135e+002
7.199097e+002, 3.345480e+002
7.203918e+002, 3.357142e+002
7.208740e+002, 3.367401e+002
7.213561e+002, 3.375449e+002
7.218382e+002, 3.380396e+002
7.223203e+002, 3.379238e+002
7.228024e+002, 3.376316e+002
7.232845e+002, 3.375580e+002
7.237667e+002, 3.380321e+002
7.242488e+002, 3.381650e+002
7.247309e+002, 3.376812e+002
7.252130e+002, 3.371464e+002
7.256951e+002, 3.372777e+002
7.261772e+002, 3.381177e+002
7.266594e+002, 3.389860e+002
7.271415e+002, 3.398188e+002
7.276236e+002, 3.405030e+002
7.281057e+002, 3.407379e+002
7.285878e+002, 3.406994e+002
7.290699e+002, 3.408627e+002
7.295521e+002, 3.415199e+002
7.300342e+002, 3.422080e+002
7.305163e+002, 3.425551e+002
7.309984e+002, 3.427299e+002
7.314805e+002, 3.430324e+002
7.319626e+002, 3.439123e+002
7.324448e+002, 3.444585e+002
7.329269e+002, 3.443068e+002
7.334090e+002, 3.437688e+002
7.338911e+002, 3.437165e+002
7.343732e+002, 3.442433e+002
7.348553e+002, 3.449002e+002
7.353375e+002, 3.456512e+002
7.358196e+002, 3.463572e+002
7.363017e+002, 3.464341e+002
7.367838e+002, 3.460225e+002
7.372659e+002, 3.459816e+002
7.377480e+002, 3.471955e+002
7.382302e+002, 3.486848e+002
7.387123e+002, 3.496091e+002
7.391944e+002, 3.500102e+002
7.396765e+002, 3.501774e+002
7.401586e+002, 3.496713e+002
7.406407e+002, 3.494679e+002
7.411229e+002, 3.502407e+002
7.416050e+002, 3.519270e+002
7.420871e+002, 3.529839e+002
7.425692e+002, 3.532472e+002
7.430513e+002, 3.532831e+002
7.435334e+002, 3.532668e+002
7.440156e+002, 3.532430e+002
7.444977e+002, 3.537260e+002
7.449798e+002, 3.547179e+002
7.454619e+002, 3.555260e+002
7.459440e+002, 3.553463e+002
7.464261e+002, 3.548031e+002
7.469083e+002, 3.546313e+002
7.473904e+002, 3.548975e+002
7.478725e+002, 3.554420e+002
7.483546e+002, 3.566931e+002
7.488367e+002, 3.578166e+002
7.493188e+002, 3.581171e+002
7.498010e+002, 3.571754e+002
7.502831e+002, 3.568255e+002
7.507652e+002, 3.573452e+002
7.512473e+002, 3.580215e+002
7.517294e+002, 3.582769e+002
7.522115e+002, 3.581153e+002
7.526937e+002, 3.579487e+002
7.531758e+002, 3.577715e+002
7.536579e+002, 3.578065e+002
7.541400e+002, 3.586266e+002
7.546221e+002, 3.597096e+002
7.551042e+002, 3.600995e+002
7.555864e+002, 3.594268e+002
7.560685e+002, 3.588342e+002
7.565506e+002, 3.591431e+002
7.570327e+002, 3.597331e+002
7.575148e+002, 3.599676e+002
7.579969e+002, 3.591450e+002
7.584791e+002, 3.589616e+002
7.589612e+002, 3.596190e+002
7.594433e+002, 3.606877e+002
7.599254e+002, 3.617079e+002
7.604075e+002, 3.626901e+002
7.608896e+002, 3.634770e+002
7.613718e+002, 3.640195e+002
7.618539e+002, 3.644275e+002
7.623360e+002, 3.647926e+002
7.628181e+002, 3.651370e+002
7.633002e+002, 3.655036e+002
7.637823e+002, 3.658866e+002
7.642645e+002, 3.663378e+002
7.647466e+002, 3.668887e+002
7.652287e+002, 3.675247e+002
7.657108e+002, 3.682468e+002
7.661929e+002, 3.695303e+002
7.666750e+002, 3.701712e+002
7.671572e+002, 3.696870e+002
7.676393e+002, 3.688003e+002
7.681214e+002, 3.689881e+002
7.686035e+002, 3.703404e+002
7.690856e+002, 3.715172e+002
7.695677e+002, 3.722310e+002
7.700499e+002, 3.725255e+002
7.705320e+002, 3.718948e+002
7.710141e+002, 3.708822e+002
7.714962e+002, 3.708919e+002
7.719783e+002, 3.735796e+002
7.724604e+002, 3.763304e+002
7.729426e+002, 3.777273e+002
7.734247e+002, 3.781772e+002
7.739068e+002, 3.785847e+002
7.743889e+002, 3.787983e+002
7.748710e+002, 3.794010e+002
7.753531e+002, 3.807431e+002
7.758353e+002, 3.824291e+002
7.763174e+002, 3.831756e+002
7.767995e+002, 3.829276e+002
7.772816e+002, 3.828724e+002
7.777637e+002, 3.834793e+002
7.782458e+002, 3.844951e+002
7.787280e+002, 3.854544e+002
7.792101e+002, 3.864592e+002
7.796922e+002, 3.878036e+002
7.801743e+002, 3.899947e+002
7.806564e+002, 3.922210e+002
7.811385e+002, 3.941150e+002
7.816207e+002, 3.957177e+002
7.821028e+002, 3.971826e+002
7.825849e+002, 3.983784e+002
7.830670e+002, 3.996962e+002
7.835491e+002, 4.012771e+002
7.840313e+002, 4.030430e+002
7.845134e+002, 4.046554e+002
7.849955e+002, 4.061182e+002
7.854776e+002, 4.077421e+002
7.859597e+002, 4.095161e+002
7.864418e+002, 4.116718e+002
7.869240e+002, 4.148112e+002
7.874061e+002, 4.186961e+002
7.878882e+002, 4.224374e+002
7.883703e+002, 4.250307e+002
7.888524e+002, 4.278208e+002
7.893345e+002, 4.314673e+002
7.898167e+002, 4.359487e+002
7.902988e+002, 4.405151e+002
7.907809e+002, 4.449875e+002
7.912630e+002, 4.499079e+002
7.917451e+002, 4.555474e+002
7.922272e+002, 4.617684e+002
7.927094e+002, 4.682834e+002
7.931915e+002, 4.750663e+002
7.936736e+002, 4.828040e+002
7.941557e+002, 4.917100e+002
7.946378e+002, 5.018304e+002
7.951199e+002, 5.131815e+002
7.956021e+002, 5.256033e+002
7.960842e+002, 5.391431e+002
7.965663e+002, 5.534118e+002
7.970484e+002, 5.690307e+002
7.975305e+002, 5.861315e+002
7.980126e+002, 6.046414e+002
7.984948e+002, 6.248170e+002
7.989769e+002, 6.463867e+002
7.994590e+002, 6.701321e+002
7.999411e+002, 6.959411e+002
8.004232e+002, 7.241765e+002
8.009053e+002, 7.548801e+002
8.013875e+002, 7.880797e+002
8.018696e+002, 8.238519e+002
8.023517e+002, 8.628414e+002
8.028338e+002, 9.046354e+002
8.033159e+002, 9.484147e+002
8.037980e+002, 9.944053e+002
8.042802e+002, 1.043047e+003
8.047623e+002, 1.094152e+003
8.052444e+002, 1.148398e+003
8.057265e+002, 1.206163e+003
8.062086e+002, 1.267059e+003
8.066907e+002, 1.328093e+003
8.071729e+002, 1.389456e+003
8.076550e+002, 1.450918e+003
8.081371e+002, 1.513862e+003
8.086192e+002, 1.576794e+003
8.091013e+002, 1.636376e+003
8.095834e+002, 1.692514e+003
8.100656e+002, 1.744706e+003
8.105477e+002, 1.793967e+003
8.110298e+002, 1.838033e+003
8.115119e+002, 1.876284e+003
8.119940e+002, 1.908582e+003
8.124761e+002, 1.934008e+003
8.129583e+002, 1.951556e+003
8.134404e+002, 1.963532e+003
8.139225e+002, 1.970689e+003
8.144046e+002, 1.972816e+003
8.148867e+002, 1.968145e+003
8.153688e+002, 1.956557e+003
8.158510e+002, 1.941527e+003
8.163331e+002, 1.924616e+003
8.168152e+002, 1.905411e+003
8.172973e+002, 1.883983e+003
8.177794e+002, 1.859958e+003
8.182615e+002, 1.832062e+003
8.187437e+002, 1.799518e+003
8.192258e+002, 1.763430e+003
8.197079e+002, 1.724294e+003
8.201900e+002, 1.681562e+003
8.206721e+002, 1.634293e+003
8.211542e+002, 1.580029e+003
8.216364e+002, 1.526043e+003
8.221185e+002, 1.474419e+003
8.226006e+002, 1.425193e+003
8.230827e+002, 1.374394e+003
8.235648e+002, 1.322868e+003
8.240469e+002, 1.273889e+003
8.245291e+002, 1.229219e+003
8.250112e+002, 1.188056e+003
8.254933e+002, 1.148646e+003
8.259754e+002, 1.111619e+003
8.264575e+002, 1.078397e+003
8.269396e+002, 1.050699e+003
8.274218e+002, 1.025569e+003
8.279039e+002, 1.001840e+003
8.283860e+002, 9.800272e+002
8.288681e+002, 9.630205e+002
8.293502e+002, 9.512070e+002
8.298323e+002, 9.410255e+002
8.303145e+002, 9.310406e+002
8.307966e+002, 9.222308e+002
8.312787e+002, 9.168365e+002
8.317608e+002, 9.142294e+002
8.322429e+002, 9.126418e+002
8.327250e+002, 9.111780e+002
8.332072e+002, 9.105418e+002
8.336893e+002, 9.114354e+002
8.341714e+002, 9.134342e+002
8.346535e+002, 9.154380e+002
8.351356e+002, 9.173493e+002
8.356177e+002, 9.192977e+002
8.360999e+002, 9.214056e+002
8.365820e+002, 9.235060e+002
8.370641e+002, 9.254668e+002
8.375462e+002, 9.272204e+002
8.380283e+002, 9.280396e+002
8.385104e+002, 9.278427e+002
8.389926e+002, 9.263294e+002
8.394747e+002, 9.229128e+002
8.399568e+002, 9.180087e+002
8.404389e+002, 9.122792e+002
8.409210e+002, 9.062116e+002
8.414031e+002, 8.990086e+002
8.418853e+002, 8.902228e+002
8.423674e+002, 8.803843e+002
8.428495e+002, 8.701879e+002
8.433316e+002, 8.596476e+002
8.438137e+002, 8.485321e+002
8.442958e+002, 8.366150e+002
8.447780e+002, 8.245905e+002
8.452601e+002, 8.136928e+002
8.457422e+002, 8.035186e+002
8.462243e+002, 7.927770e+002
8.467064e+002, 7.808967e+002
8.471885e+002, 7.690036e+002
8.476707e+002, 7.576901e+002
8.481528e+002, 7.467516e+002
8.486349e+002, 7.359244e+002
8.491170e+002, 7.252982e+002
8.495991e+002, 7.147424e+002
8.500812e+002, 7.041317e+002
8.505634e+002, 6.937936e+002
8.510455e+002, 6.840264e+002
8.515276e+002, 6.747811e+002
8.520097e+002, 6.656718e+002
8.524918e+002, 6.566342e+002
8.529739e+002, 6.475978e+002
8.534561e+002, 6.382690e+002
8.539382e+002, 6.290038e+002
8.544203e+002, 6.202613e+002
8.549024e+002, 6.121763e+002
8.553845e+002, 6.043405e+002
8.558666e+002, 5.964385e+002
8.563488e+002, 5.888100e+002
8.568309e+002, 5.819446e+002
8.573130e+002, 5.759104e+002
8.577951e+002, 5.693994e+002
8.582772e+002, 5.623612e+002
8.587593e+002, 5.554902e+002
8.592415e+002, 5.493910e+002
8.597236e+002, 5.439064e+002
8.602057e+002, 5.386547e+002
8.606878e+002, 5.336304e+002
8.611699e+002, 5.289642e+002
8.616520e+002, 5.250378e+002
8.621342e+002, 5.211867e+002
8.626163e+002, 5.169468e+002
8.630984e+002, 5.123440e+002
8.635805e+002, 5.075785e+002
8.640626e+002, 5.024973e+002
8.645447e+002, 4.978175e+002
8.650269e+002, 4.940266e+002
8.655090e+002, 4.909420e+002
8.659911e+002, 4.882589e+002
8.664732e+002, 4.859090e+002
8.669553e+002, 4.832851e+002
8.674374e+002, 4.794402e+002
8.679196e+002, 4.757037e+002
8.684017e+002, 4.732143e+002
8.688838e+002, 4.718298e+002
8.693659e+002, 4.703050e+002
8.698480e+002, 4.684406e+002
8.703301e+002, 4.665656e+002
8.708123e+002, 4.647150e+002
8.712944e+002, 4.629190e+002
8.717765e+002, 4.611190e+002
8.722586e+002, 4.593764e+002
8.727407e+002, 4.582256e+002
8.732228e+002, 4.583271e+002
8.737050e+002, 4.586626e+002
8.741871e+002, 4.582671e+002
8.746692e+002, 4.573024e+002
8.751513e+002, 4.561089e+002
8.756334e+002, 4.542080e+002
8.761155e+002, 4.528763e+002
8.765977e+002, 4.525596e+002
8.770798e+002, 4.527604e+002
8.775619e+002, 4.526199e+002
8.780440e+002, 4.521312e+002
8.785261e+002, 4.513966e+002
8.790082e+002, 4.503318e+002
8.794904e+002, 4.493058e+002
8.799725e+002, 4.487168e+002
8.804546e+002, 4.485088e+002
8.809367e+002, 4.485891e+002
8.814188e+002, 4.489458e+002
8.819009e+002, 4.495506e+002
8.823831e+002, 4.506852e+002
8.828652e+002, 4.518887e+002
8.833473e+002, 4.526605e+002
8.838294e+002, 4.528798e+002
8.843115e+002, 4.530605e+002
8.847936e+002, 4.530868e+002
8.852758e+002, 4.535872e+002
8.857579e+002, 4.557913e+002
8.862400e+002, 4.588469e+002
8.867221e+002, 4.605951e+002
8.872042e+002, 4.606962e+002
8.876863e+002, 4.610117e+002
8.881685e+002, 4.624035e+002
8.886506e+002, 4.645540e+002
8.891327e+002, 4.675885e+002
8.896148e+002, 4.717563e+002
8.900969e+002, 4.745424e+002
8.905790e+002, 4.755627e+002
8.910612e+002, 4.762198e+002
8.915433e+002, 4.772611e+002
8.920254e+002, 4.786087e+002
8.925075e+002, 4.802309e+002
8.929896e+002, 4.820280e+002
8.934717e+002, 4.832039e+002
8.939539e+002, 4.832596e+002
8.944360e+002, 4.825534e+002
8.949181e+002, 4.810719e+002
8.954002e+002, 4.789466e+002
8.958823e+002, 4.770182e+002
8.963644e+002, 4.755804e+002
8.968466e+002, 4.738670e+002
8.973287e+002, 4.715557e+002
8.978108e+002, 4.689336e+002
8.982929e+002, 4.668374e+002
8.987750e+002, 4.651537e+002
8.992571e+002, 4.630596e+002
8.997393e+002, 4.601451e+002
9.002214e+002, 4.568614e+002
9.007035e+002, 4.533169e+002
9.011856e+002, 4.497443e+002
9.016677e+002, 4.466100e+002
9.021498e+002, 4.440965e+002
9.026320e+002, 4.418870e+002
9.031141e+002, 4.400195e+002
9.035962e+002, 4.383365e+002
9.040783e+002, 4.367085e+002
9.045604e+002, 4.351110e+002
9.050425e+002, 4.333963e+002
9.055247e+002, 4.315133e+002
9.060068e+002, 4.296943e+002
9.064889e+002, 4.282455e+002
9.069710e+002, 4.269413e+002
9.074531e+002, 4.254652e+002
9.079352e+002, 4.235887e+002
9.084174e+002, 4.222124e+002
9.088995e+002, 4.216123e+002
9.093816e+002, 4.213515e+002
9.098637e+002, 4.213068e+002
9.103458e+002, 4.214769e+002
9.108279e+002, 4.210748e+002
9.113101e+002, 4.200863e+002
9.117922e+002, 4.191864e+002
9.122743e+002, 4.188551e+002
9.127564e+002, 4.188732e+002
9.132385e+002, 4.190729e+002
9.137206e+002, 4.194217e+002
9.142028e+002, 4.197846e+002
9.146849e+002, 4.202539e+002
9.151670e+002, 4.205612e+002
9.156491e+002, 4.205224e+002
9.161312e+002, 4.202892e+002
9.166133e+002, 4.205651e+002
9.170955e+002, 4.213674e+002
9.175776e+002, 4.218440e+002
9.180597e+002, 4.214143e+002
9.185418e+002, 4.209287e+002
9.190239e+002, 4.217124e+002
9.195060e+002, 4.231810e+002
9.199882e+002, 4.241895e+002
9.204703e+002, 4.235106e+002
9.209524e+002, 4.234942e+002
9.214345e+002, 4.249620e+002
9.219166e+002, 4.268781e+002
9.223987e+002, 4.279263e+002
9.228809e+002, 4.280435e+002
9.233630e+002, 4.282361e+002
9.238451e+002, 4.286190e+002
9.243272e+002, 4.290622e+002
9.248093e+002, 4.292613e+002
9.252914e+002, 4.295132e+002
9.257736e+002, 4.303242e+002
9.262557e+002, 4.318988e+002
9.267378e+002, 4.332118e+002
9.272199e+002, 4.334771e+002
9.277020e+002, 4.338845e+002
9.281841e+002, 4.352496e+002
9.286663e+002, 4.375670e+002
9.291484e+002, 4.386695e+002
9.296305e+002, 4.385204e+002
9.301126e+002, 4.382033e+002
9.305947e+002, 4.382935e+002
9.310768e+002, 4.386865e+002
9.315590e+002, 4.393716e+002
9.320411e+002, 4.402722e+002
9.325232e+002, 4.410513e+002
9.330053e+002, 4.413001e+002
9.334874e+002, 4.417999e+002
9.339695e+002, 4.428543e+002
9.344517e+002, 4.442271e+002
9.349338e+002, 4.453407e+002
9.354159e+002, 4.461808e+002
9.358980e+002, 4.471414e+002
9.363801e+002, 4.483179e+002
9.368622e+002, 4.496395e+002
9.373444e+002, 4.508064e+002
9.378265e+002, 4.521127e+002
9.383086e+002, 4.540246e+002
9.387907e+002, 4.567937e+002
9.392728e+002, 4.599125e+002
9.397549e+002, 4.635390e+002
9.402371e+002, 4.671887e+002
9.407192e+002, 4.705340e+002
9.412013e+002, 4.735493e+002
9.416834e+002, 4.764801e+002
9.421655e+002, 4.793100e+002
9.426476e+002, 4.822568e+002
9.431298e+002, 4.857060e+002
9.436119e+002, 4.891868e+002
9.440940e+002, 4.924878e+002
9.445761e+002, 4.955647e+002
9.450582e+002, 4.974803e+002
9.455403e+002, 4.973333e+002
9.460225e+002, 4.968203e+002
9.465046e+002, 4.965836e+002
9.469867e+002, 4.963600e+002
9.474688e+002, 4.950615e+002
9.479509e+002, 4.927153e+002
9.484330e+002, 4.895090e+002
9.489152e+002, 4.852100e+002
9.493973e+002, 4.805126e+002
9.498794e+002, 4.760590e+002
9.503615e+002, 4.716890e+002
9.508436e+002, 4.671005e+002
9.513257e+002, 4.617931e+002
9.518079e+002, 4.569701e+002
9.522900e+002, 4.527815e+002
9.527721e+002, 4.489855e+002
9.532542e+002, 4.451743e+002
9.537363e+002, 4.414363e+002
9.542184e+002, 4.386386e+002
9.547006e+002, 4.369489e+002
9.551827e+002, 4.352076e+002
9.556648e+002, 4.319550e+002
9.561469e+002, 4.285555e+002
9.566290e+002, 4.263401e+002
9.571111e+002, 4.255872e+002
9.575933e+002, 4.246796e+002
9.580754e+002, 4.234494e+002
9.585575e+002, 4.222615e+002
9.590396e+002, 4.212721e+002
9.595217e+002, 4.204751e+002
9.600038e+002, 4.198060e+002
9.604860e+002, 4.192855e+002
9.609681e+002, 4.190215e+002
9.614502e+002, 4.193725e+002
9.619323e+002, 4.196910e+002
9.624144e+002, 4.196237e+002
9.628965e+002, 4.192349e+002
9.633787e+002, 4.186520e+002
9.638608e+002, 4.176976e+002
9.643429e+002, 4.170280e+002
9.648250e+002, 4.167480e+002
9.653071e+002, 4.166878e+002
9.657892e+002, 4.165038e+002
9.662714e+002, 4.163725e+002
9.667535e+002, 4.169278e+002
9.672356e+002, 4.184131e+002
9.677177e+002, 4.194935e+002
9.681998e+002, 4.192910e+002
9.686819e+002, 4.185061e+002
9.691641e+002, 4.174915e+002
9.696462e+002, 4.162068e+002
9.701283e+002, 4.155173e+002
9.706104e+002, 4.155058e+002
9.710925e+002, 4.155682e+002
9.715746e+002, 4.151863e+002
9.720568e+002, 4.147387e+002
9.725389e+002, 4.152774e+002
9.730210e+002, 4.163995e+002
9.735031e+002, 4.167603e+002
9.739852e+002, 4.149085e+002
9.744673e+002, 4.132758e+002
9.749495e+002, 4.125889e+002
9.754316e+002, 4.125164e+002
9.759137e+002, 4.126469e+002
9.763958e+002, 4.130101e+002
9.768779e+002, 4.130762e+002
9.773600e+002, 4.127264e+002
9.778422e+002, 4.122066e+002
9.783243e+002, 4.116083e+002
9.788064e+002, 4.110841e+002
9.792885e+002, 4.108883e+002
9.797706e+002, 4.111519e+002
9.802527e+002, 4.112809e+002
9.807349e+002, 4.109482e+002
9.812170e+002, 4.107849e+002
9.816991e+002, 4.113131e+002
9.821812e+002, 4.123550e+002
9.826633e+002, 4.123870e+002
9.831454e+002, 4.114900e+002
9.836276e+002, 4.106254e+002
9.841097e+002, 4.098178e+002
9.845918e+002, 4.097502e+002
9.850739e+002, 4.117380e+002
9.855560e+002, 4.148414e+002
9.860381e+002, 4.164644e+002
9.865203e+002, 4.158710e+002
9.870024e+002, 4.149822e+002
9.874845e+002, 4.139147e+002
9.879666e+002, 4.128830e+002
9.884487e+002, 4.121844e+002
9.889308e+002, 4.117848e+002
9.894130e+002, 4.115781e+002
9.898951e+002, 4.115607e+002
9.903772e+002, 4.116573e+002
9.908593e+002, 4.120438e+002
9.913414e+002, 4.123572e+002
9.918235e+002, 4.122860e+002
9.923057e+002, 4.118124e+002
9.927878e+002, 4.113755e+002
9.932699e+002, 4.109349e+002
9.937520e+002, 4.107447e+002
9.942341e+002, 4.111233e+002
9.947162e+002, 4.116992e+002
9.951984e+002, 4.119624e+002
9.956805e+002, 4.118936e+002
9.961626e+002, 4.114373e+002
9.966447e+002, 4.099690e+002
9.971268e+002, 4.088843e+002
9.976089e+002, 4.085040e+002
9.980911e+002, 4.086020e+002
9.985732e+002, 4.090113e+002
9.990553e+002, 4.097272e+002
9.995374e+002, 4.100692e+002
1.000020e+003, 4.099143e+002
1.000502e+003, 4.096861e+002
1.000984e+003, 4.097675e+002
1.001466e+003, 4.099680e+002
1.001948e+003, 4.101739e+002
1.002430e+003, 4.103882e+002
1.002912e+003, 4.102433e+002
1.003394e+003, 4.095473e+002
1.003876e+003, 4.088465e+002
1.004359e+003, 4.083488e+002
1.004841e+003, 4.080219e+002
1.005323e+003, 4.077446e+002
1.005805e+003, 4.075528e+002
1.006287e+003, 4.076026e+002
1.006769e+003, 4.081766e+002
1.007251e+003, 4.087368e+002
1.007733e+003, 4.089779e+002
1.008216e+003, 4.090487e+002
1.008698e+003, 4.091617e+002
1.009180e+003, 4.093504e+002
1.009662e+003, 4.094304e+002
1.010144e+003, 4.093604e+002
1.010626e+003, 4.093278e+002
1.011108e+003, 4.096792e+002
1.011590e+003, 4.101042e+002
1.012072e+003, 4.100516e+002
1.012555e+003, 4.095117e+002
1.013037e+003, 4.090641e+002
1.013519e+003, 4.087504e+002
1.014001e+003, 4.087899e+002
1.014483e+003, 4.094896e+002
1.014965e+003, 4.104954e+002
1.015447e+003, 4.104228e+002
1.015929e+003, 4.093904e+002
1.016411e+003, 4.086541e+002
1.016894e+003, 4.086811e+002
1.017376e+003, 4.090052e+002
1.017858e+003, 4.093030e+002
1.018340e+003, 4.096237e+002
1.018822e+003, 4.100479e+002
1.019304e+003, 4.107324e+002
1.019786e+003, 4.111751e+002
1.020268e+003, 4.114051e+002
1.020751e+003, 4.113299e+002
1.021233e+003, 4.105967e+002
1.021715e+003, 4.095675e+002
1.022197e+003, 4.092705e+002
1.022679e+003, 4.096291e+002
1.023161e+003, 4.100899e+002
1.023643e+003, 4.105368e+002
1.024125e+003, 4.108485e+002
1.024607e+003, 4.108767e+002
1.025090e+003, 4.107701e+002
1.025572e+003, 4.107916e+002
1.026054e+003, 4.109322e+002
1.026536e+003, 4.114224e+002
1.027018e+003, 4.124150e+002
1.027500e+003, 4.132596e+002
1.027982e+003, 4.130533e+002
1.028464e+003, 4.124223e+002
1.028947e+003, 4.121653e+002
1.029429e+003, 4.125562e+002
1.029911e+003, 4.124608e+002
1.030393e+003, 4.115037e+002
1.030875e+003, 4.106495e+002
1.031357e+003, 4.103685e+002
1.031839e+003, 4.105808e+002
1.032321e+003, 4.111751e+002
1.032803e+003, 4.120556e+002
1.033286e+003, 4.128248e+002
1.033768e+003, 4.133060e+002
1.034250e+003, 4.136038e+002
1.034732e+003, 4.135812e+002
1.035214e+003, 4.134900e+002
1.035696e+003, 4.137529e+002
1.036178e+003, 4.145090e+002
1.036660e+003, 4.147856e+002
1.037143e+003, 4.144679e+002
1.037625e+003, 4.139604e+002
1.038107e+003, 4.134763e+002
1.038589e+003, 4.131040e+002
1.039071e+003, 4.128488e+002
1.039553e+003, 4.127377e+002
1.040035e+003, 4.132462e+002
1.040517e+003, 4.154366e+002
1.041000e+003, 4.166867e+002
1.041482e+003, 4.158575e+002
1.041964e+003, 4.140413e+002
1.042446e+003, 4.140371e+002
1.042928e+003, 4.154166e+002
1.043410e+003, 4.163971e+002
1.043892e+003, 4.163383e+002
1.044374e+003, 4.161644e+002
1.044856e+003, 4.164316e+002
1.045339e+003, 4.168411e+002
1.045821e+003, 4.171690e+002
1.046303e+003, 4.174439e+002
1.046785e+003, 4.172448e+002
1.047267e+003, 4.164805e+002
1.047749e+003, 4.160527e+002
1.048231e+003, 4.171167e+002
1.048713e+003, 4.184722e+002
1.049195e+003, 4.183056e+002
1.049677e+003, 4.171258e+002
1.050160e+003, 4.164254e+002
1.050642e+003, 4.171858e+002
1.051124e+003, 4.176732e+002
1.051606e+003, 4.176657e+002
1.052088e+003, 4.173654e+002
1.052570e+003, 4.168996e+002
1.053052e+003, 4.163604e+002
1.053534e+003, 4.161812e+002
1.054017e+003, 4.164189e+002
1.054499e+003, 4.167414e+002
1.054981e+003, 4.170643e+002
1.055463e+003, 4.172960e+002
1.055945e+003, 4.174026e+002
1.056427e+003, 4.173796e+002
1.056909e+003, 4.170938e+002
1.057391e+003, 4.165238e+002
1.057874e+003, 4.159520e+002
1.058356e+003, 4.153831e+002
1.058838e+003, 4.150616e+002
1.059320e+003, 4.154972e+002
1.059802e+003, 4.162915e+002
1.060284e+003, 4.168904e+002
1.060766e+003, 4.171395e+002
1.061248e+003, 4.172460e+002
1.061730e+003, 4.171368e+002
1.062213e+003, 4.170597e+002
1.062695e+003, 4.172547e+002
1.063177e+003, 4.176160e+002
1.063659e+003, 4.177537e+002
1.064141e+003, 4.176998e+002
1.064623e+003, 4.176192e+002
1.065105e+003, 4.175844e+002
1.065587e+003, 4.175377e+002
1.066070e+003, 4.173519e+002
1.066552e+003, 4.171848e+002
1.067034e+003, 4.173820e+002
1.067516e+003, 4.179646e+002
1.067998e+003, 4.180805e+002
1.068480e+003, 4.175904e+002
1.068962e+003, 4.170296e+002
1.069444e+003, 4.166362e+002
1.069927e+003, 4.165826e+002
1.070409e+003, 4.173107e+002
1.070891e+003, 4.188029e+002
1.071373e+003, 4.193834e+002
1.071855e+003, 4.186691e+002
1.072337e+003, 4.180109e+002
1.072819e+003, 4.178055e+002
1.073301e+003, 4.179270e+002
1.073783e+003, 4.183618e+002
1.074266e+003, 4.189049e+002
1.074748e+003, 4.190640e+002
1.075230e+003, 4.184608e+002
1.075712e+003, 4.181779e+002
1.076194e+003, 4.189628e+002
1.076676e+003, 4.196156e+002
1.077158e+003, 4.191610e+002
1.077640e+003, 4.178008e+002
1.078122e+003, 4.178729e+002
1.078604e+003, 4.191997e+002
1.079087e+003, 4.202807e+002
1.079569e+003, 4.198572e+002
1.080051e+003, 4.193654e+002
1.080533e+003, 4.197169e+002
1.081015e+003, 4.205482e+002
1.081497e+003, 4.212565e+002
1.081979e+003, 4.219478e+002
1.082461e+003, 4.217426e+002
1.082944e+003, 4.204200e+002
1.083426e+003, 4.192618e+002
1.083908e+003, 4.200024e+002
1.084390e+003, 4.212885e+002
1.084872e+003, 4.214160e+002
1.085354e+003, 4.203804e+002
1.085836e+003, 4.194636e+002
1.086318e+003, 4.185706e+002
1.086801e+003, 4.183654e+002
1.087283e+003, 4.191569e+002
1.087765e+003, 4.204814e+002
1.088247e+003, 4.217436e+002
1.088729e+003, 4.228230e+002
1.089211e+003, 4.233471e+002
1.089693e+003, 4.231808e+002
1.090175e+003, 4.227906e+002
1.090657e+003, 4.220064e+002
1.091140e+003, 4.214224e+002
1.091622e+003, 4.214214e+002
1.092104e+003, 4.219164e+002
1.092586e+003, 4.221463e+002
1.093068e+003, 4.221509e+002
1.093550e+003, 4.224285e+002
1.094032e+003, 4.235931e+002
1.094514e+003, 4.245273e+002
1.094997e+003, 4.240811e+002
1.095479e+003, 4.230735e+002
1.095961e+003, 4.226118e+002
1.096443e+003, 4.228554e+002
1.096925e+003, 4.233027e+002
1.097407e+003, 4.240119e+002
1.097889e+003, 4.245458e+002
1.098371e+003, 4.244274e+002
1.098854e+003, 4.240259e+002
1.099336e+003, 4.236941e+002
1.099818e+003, 4.234756e+002
1.100300e+003, 4.235049e+002
1.100782e+003, 4.242329e+002
1.101264e+003, 4.243808e+002
1.101746e+003, 4.234979e+002
1.102228e+003, 4.225746e+002
1.102710e+003, 4.233969e+002
1.103193e+003, 4.251323e+002
1.103675e+003, 4.254493e+002
1.104157e+003, 4.240796e+002
1.104639e+003, 4.232840e+002
1.105121e+003, 4.249026e+002
1.105603e+003, 4.263080e+002
1.106085e+003, 4.263785e+002
1.106567e+003, 4.255882e+002
1.107049e+003, 4.253953e+002
1.107531e+003, 4.257231e+002
1.108014e+003, 4.259824e+002
1.108496e+003, 4.259882e+002
1.108978e+003, 4.259770e+002
1.109460e+003, 4.260871e+002
1.109942e+003, 4.262668e+002
1.110424e+003, 4.264271e+002
1.110906e+003, 4.265497e+002
1.111388e+003, 4.270299e+002
1.111871e+003, 4.278953e+002
1.112353e+003, 4.287226e+002
1.112835e+003, 4.294634e+002
1.113317e+003, 4.298628e+002
1.113799e+003, 4.292171e+002
1.114281e+003, 4.281698e+002
1.114763e+003, 4.278134e+002
1.115245e+003, 4.288091e+002
1.115728e+003, 4.295219e+002
1.116210e+003, 4.299346e+002
1.116692e+003, 4.301345e+002
1.117174e+003, 4.300939e+002
1.117656e+003, 4.299359e+002
1.118138e+003, 4.295641e+002
1.118620e+003, 4.292104e+002
1.119102e+003, 4.297757e+002
1.119584e+003, 4.331721e+002
1.120067e+003, 4.351888e+002
1.120549e+003, 4.348420e+002
1.121031e+003, 4.334232e+002
1.121513e+003, 4.324051e+002
1.121995e+003, 4.317750e+002
1.122477e+003, 4.316253e+002
1.122959e+003, 4.319432e+002
1.123441e+003, 4.322147e+002
1.123924e+003, 4.320152e+002
1.124406e+003, 4.318916e+002
1.124888e+003, 4.321946e+002
1.125370e+003, 4.326883e+002
1.125852e+003, 4.326249e+002
1.126334e+003, 4.320689e+002
1.126816e+003, 4.317286e+002
1.127298e+003, 4.318089e+002
1.127781e+003, 4.319633e+002
1.128263e+003, 4.318570e+002
1.128745e+003, 4.317911e+002
1.129227e+003, 4.321986e+002
1.129709e+003, 4.330360e+002
1.130191e+003, 4.328763e+002
1.130673e+003, 4.316355e+002
1.131155e+003, 4.306832e+002
1.131637e+003, 4.305645e+002
1.132120e+003, 4.309703e+002
1.132602e+003, 4.318940e+002
1.133084e+003, 4.329954e+002
1.133566e+003, 4.337332e+002
1.134048e+003, 4.338609e+002
1.134530e+003, 4.343491e+002
1.135012e+003, 4.353327e+002
1.135494e+003, 4.361187e+002
1.135976e+003, 4.361244e+002
1.136458e+003, 4.357485e+002
1.136941e+003, 4.356219e+002
1.137423e+003, 4.356374e+002
1.137905e+003, 4.355319e+002
1.138387e+003, 4.346923e+002
1.138869e+003, 4.346422e+002
1.139351e+003, 4.356834e+002
1.139833e+003, 4.370230e+002
1.140315e+003, 4.381420e+002
1.140798e+003, 4.388781e+002
1.141280e+003, 4.385348e+002
1.141762e+003, 4.372953e+002
1.142244e+003, 4.364318e+002
1.142726e+003, 4.366168e+002
1.143208e+003, 4.370740e+002
1.143690e+003, 4.377719e+002
1.144172e+003, 4.384513e+002
1.144655e+003, 4.386158e+002
1.145137e+003, 4.384158e+002
1.145619e+003, 4.384234e+002
1.146101e+003, 4.387132e+002
1.146583e+003, 4.392920e+002
1.147065e+003, 4.408117e+002
1.147547e+003, 4.419070e+002
1.148029e+003, 4.418522e+002
1.148511e+003, 4.410205e+002
1.148994e+003, 4.402725e+002
1.149476e+003, 4.396558e+002
1.149958e+003, 4.396996e+002
1.150440e+003, 4.406608e+002
1.150922e+003, 4.415945e+002
1.151404e+003, 4.416588e+002
1.151886e+003, 4.415573e+002
1.152368e+003, 4.418517e+002
1.152851e+003, 4.424905e+002
1.153333e+003, 4.429432e+002
1.153815e+003, 4.432027e+002
1.154297e+003, 4.434856e+002
1.154779e+003, 4.438792e+002
1.155261e+003, 4.442924e+002
1.155743e+003, 4.446376e+002
1.156225e+003, 4.449457e+002
1.156708e+003, 4.452536e+002
1.157190e+003, 4.455705e+002
1.157672e+003, 4.458565e+002
1.158154e+003, 4.461204e+002
1.158636e+003, 4.463073e+002
1.159118e+003, 4.464272e+002
1.159600e+003, 4.464211e+002
1.160082e+003, 4.457379e+002
1.160564e+003, 4.450375e+002
1.161047e+003, 4.456305e+002
1.161529e+003, 4.491216e+002
1.162011e+003, 4.501898e+002
1.162493e+003, 4.482762e+002
1.162975e+003, 4.462289e+002
1.163457e+003, 4.465499e+002
1.163939e+003, 4.478471e+002
1.164421e+003, 4.481425e+002
1.164903e+003, 4.477482e+002
1.165385e+003, 4.477196e+002
1.165868e+003, 4.487514e+002
1.166350e+003, 4.492413e+002
1.166832e+003, 4.489677e+002
1.167314e+003, 4.483895e+002
1.167796e+003, 4.477798e+002
1.168278e+003, 4.472946e+002
1.168760e+003, 4.472873e+002
1.169242e+003, 4.477170e+002
1.169725e+003, 4.481994e+002
1.170207e+003, 4.485498e+002
1.170689e+003, 4.491363e+002
1.171171e+003, 4.502031e+002
1.171653e+003, 4.511743e+002
1.172135e+003, 4.509625e+002
1.172617e+003, 4.500974e+002
1.173099e+003, 4.498921e+002
1.173582e+003, 4.504735e+002
1.174064e+003, 4.507130e+002
1.174546e+003, 4.494233e+002
1.175028e+003, 4.488082e+002
1.175510e+003, 4.496999e+002
1.175992e+003, 4.512357e+002
1.176474e+003, 4.516513e+002
1.176956e+003, 4.512679e+002
1.177438e+003, 4.509731e+002
1.177921e+003, 4.509330e+002
1.178403e+003, 4.509749e+002
1.178885e+003, 4.510804e+002
1.179367e+003, 4.511942e+002
1.179849e+003, 4.512551e+002
1.180331e+003, 4.513399e+002
1.180813e+003, 4.518295e+002
1.181295e+003, 4.525652e+002
1.181778e+003, 4.529057e+002
1.182260e+003, 4.525808e+002
1.182742e+003, 4.521992e+002
1.183224e+003, 4.519241e+002
1.183706e+003, 4.517876e+002
1.184188e+003, 4.518069e+002
1.184670e+003, 4.519729e+002
1.185152e+003, 4.522986e+002
1.185635e+003, 4.527418e+002
1.186117e+003, 4.531109e+002
1.186599e+003, 4.533257e+002
1.187081e+003, 4.534582e+002
1.187563e+003, 4.533843e+002
1.188045e+003, 4.533846e+002
1.188527e+003, 4.537605e+002
1.189009e+003, 4.544536e+002
1.189491e+003, 4.546086e+002
1.189974e+003, 4.543073e+002
1.190456e+003, 4.541477e+002
1.190938e+003, 4.546871e+002
1.191420e+003, 4.550884e+002
1.191902e+003, 4.546737e+002
1.192384e+003, 4.541157e+002
1.192866e+003, 4.541276e+002
1.193348e+003, 4.547259e+002
1.193830e+003, 4.550105e+002
1.194313e+003, 4.550138e+002
1.194795e+003, 4.551695e+002
1.195277e+003, 4.559590e+002
1.195759e+003, 4.567205e+002
1.196241e+003, 4.572045e+002
1.196723e+003, 4.573690e+002
1.197205e+003, 4.571019e+002
1.197687e+003, 4.563934e+002
1.198169e+003, 4.556322e+002
1.198652e+003, 4.548581e+002
1.199134e+003, 4.544573e+002
1.199616e+003, 4.548709e+002
1.200098e+003, 4.555600e+002
1.200580e+003, 4.564958e+002
1.201062e+003, 4.573669e+002
1.201544e+003, 4.575770e+002
1.202026e+003, 4.571009e+002
1.202509e+003, 4.570865e+002
1.202991e+003, 4.576381e+002
1.203473e+003, 4.579923e+002
1.203955e+003, 4.568695e+002
1.204437e+003, 4.560792e+002
1.204919e+003, 4.575504e+002
1.205401e+003, 4.599876e+002
1.205883e+003, 4.602106e+002
1.206365e+003, 4.581484e+002
1.206848e+003, 4.574068e+002
1.207330e+003, 4.585232e+002
1.207812e+003, 4.597783e+002
1.208294e+003, 4.597633e+002
1.208776e+003, 4.595038e+002
1.209258e+003, 4.598069e+002
1.209740e+003, 4.604243e+002
1.210222e+003, 4.604872e+002
1.210705e+003, 4.599901e+002
1.211187e+003, 4.601523e+002
1.211669e+003, 4.612650e+002
1.212151e+003, 4.623954e+002
1.212633e+003, 4.628478e+002
1.213115e+003, 4.629899e+002
1.213597e+003, 4.630477e+002
1.214079e+003, 4.630274e+002
1.214562e+003, 4.627870e+002
1.215044e+003, 4.623382e+002
1.215526e+003, 4.621469e+002
1.216008e+003, 4.623174e+002
1.216490e+003, 4.627634e+002
1.216972e+003, 4.638113e+002
1.217454e+003, 4.647482e+002
1.217936e+003, 4.648457e+002
1.218418e+003, 4.643259e+002
1.218901e+003, 4.644691e+002
1.219383e+003, 4.652197e+002
1.219865e+003, 4.653005e+002
1.220347e+003, 4.640987e+002
1.220829e+003, 4.631466e+002
1.221311e+003, 4.641641e+002
1.221793e+003, 4.653574e+002
1.222275e+003, 4.651181e+002
1.222757e+003, 4.637671e+002
1.223240e+003, 4.640044e+002
1.223722e+003, 4.656871e+002
1.224204e+003, 4.668968e+002
1.224686e+003, 4.668924e+002
1.225168e+003, 4.665948e+002
1.225650e+003, 4.662305e+002
1.226132e+003, 4.662100e+002
1.226614e+003, 4.669882e+002
1.227096e+003, 4.684132e+002
1.227579e+003, 4.690598e+002
1.228061e+003, 4.689913e+002
1.228543e+003, 4.687051e+002
1.229025e+003, 4.682099e+002
1.229507e+003, 4.679621e+002
1.229989e+003, 4.685398e+002
1.230471e+003, 4.691859e+002
1.230953e+003, 4.691902e+002
1.231436e+003, 4.686779e+002
1.231918e+003, 4.689737e+002
1.232400e+003, 4.699670e+002
1.232882e+003, 4.709286e+002
1.233364e+003, 4.716866e+002
1.233846e+003, 4.721154e+002
1.234328e+003, 4.716984e+002
1.234810e+003, 4.713672e+002
1.235292e+003, 4.720052e+002
1.235775e+003, 4.733969e+002
1.236257e+003, 4.735907e+002
1.236739e+003, 4.728253e+002
1.237221e+003, 4.723779e+002
1.237703e+003, 4.731186e+002
1.238185e+003, 4.737645e+002
1.238667e+003, 4.735238e+002
1.239149e+003, 4.733223e+002
1.239632e+003, 4.739388e+002
1.240114e+003, 4.751837e+002
1.240596e+003, 4.760852e+002
1.241078e+003, 4.766393e+002
1.241560e+003, 4.768639e+002
1.242042e+003, 4.765243e+002
1.242524e+003, 4.761660e+002
1.243006e+003, 4.755917e+002
1.243489e+003, 4.754702e+002
1.243971e+003, 4.767326e+002
1.244453e+003, 4.788858e+002
1.244935e+003, 4.797894e+002
1.245417e+003, 4.796848e+002
1.245899e+003, 4.794517e+002
1.246381e+003, 4.790163e+002
1.246863e+003, 4.792296e+002
1.247345e+003, 4.805612e+002
1.247828e+003, 4.818316e+002
1.248310e+003, 4.817547e+002
1.248792e+003, 4.809207e+002
1.249274e+003, 4.809644e+002
1.249756e+003, 4.816741e+002
1.250238e+003, 4.822513e+002
1.250720e+003, 4.825031e+002
1.251202e+003, 4.823638e+002
1.251684e+003, 4.816034e+002
1.252167e+003, 4.810150e+002
1.252649e+003, 4.814554e+002
1.253131e+003, 4.824596e+002
1.253613e+003, 4.831391e+002
1.254095e+003, 4.835832e+002
1.254577e+003, 4.841531e+002
1.255059e+003, 4.854292e+002
1.255541e+003, 4.857565e+002
1.256023e+003, 4.847754e+002
1.256506e+003, 4.837692e+002
1.256988e+003, 4.840474e+002
1.257470e+003, 4.848654e+002
1.257952e+003, 4.852675e+002
1.258434e+003, 4.853184e+002
1.258916e+003, 4.852437e+002
1.259398e+003, 4.849794e+002
1.259880e+003, 4.849303e+002
1.260363e+003, 4.851492e+002
1.260845e+003, 4.854354e+002
1.261327e+003, 4.855479e+002
1.261809e+003, 4.857042e+002
1.262291e+003, 4.863058e+002
1.262773e+003, 4.871010e+002
1.263255e+003, 4.873583e+002
1.263737e+003, 4.868397e+002
1.264219e+003, 4.869165e+002
1.264702e+003, 4.877189e+002
1.265184e+003, 4.884615e+002
1.265666e+003, 4.885005e+002
1.266148e+003, 4.882808e+002
1.266630e+003, 4.880475e+002
1.267112e+003, 4.878412e+002
1.267594e+003, 4.876756e+002
1.268076e+003, 4.875345e+002
1.268559e+003, 4.878450e+002
1.269041e+003, 4.886285e+002
1.269523e+003, 4.891668e+002
1.270005e+003, 4.883693e+002
1.270487e+003, 4.878329e+002
1.270969e+003, 4.891310e+002
1.271451e+003, 4.908714e+002
1.271933e+003, 4.909151e+002
1.272416e+003, 4.894404e+002
1.272898e+003, 4.887778e+002
1.273380e+003, 4.890463e+002
1.273862e+003, 4.898050e+002
1.274344e+003, 4.915890e+002
1.274826e+003, 4.927869e+002
1.275308e+003, 4.926104e+002
1.275790e+003, 4.919134e+002
1.276272e+003, 4.916540e+002
1.276755e+003, 4.917908e+002
1.277237e+003, 4.923186e+002
1.277719e+003, 4.931526e+002
1.278201e+003, 4.937737e+002
1.278683e+003, 4.938875e+002
1.279165e+003, 4.937859e+002
1.279647e+003, 4.933546e+002
1.280129e+003, 4.930724e+002
1.280611e+003, 4.936463e+002
1.281094e+003, 4.946892e+002
1.281576e+003, 4.954203e+002
1.282058e+003, 4.958445e+002
1.282540e+003, 4.961864e+002
1.283022e+003, 4.966167e+002
1.283504e+003, 4.966227e+002
1.283986e+003, 4.959474e+002
1.284468e+003, 4.955492e+002
1.284950e+003, 4.970091e+002
1.285433e+003, 4.988840e+002
1.285915e+003, 4.989713e+002
1.286397e+003, 4.977323e+002
1.286879e+003, 4.972997e+002
1.287361e+003, 4.981374e+002
1.287843e+003, 4.985325e+002
1.288325e+003, 4.982930e+002
1.288807e+003, 4.979792e+002
1.289290e+003, 4.980074e+002
1.289772e+003, 4.982351e+002
1.290254e+003, 4.986643e+002
1.290736e+003, 4.991628e+002
1.291218e+003, 4.994265e+002
1.291700e+003, 4.994293e+002
1.292182e+003, 4.994447e+002
1.292664e+003, 4.994898e+002
1.293146e+003, 4.998977e+002
1.293629e+003, 5.012934e+002
1.294111e+003, 5.026882e+002
1.294593e+003, 5.038524e+002
1.295075e+003, 5.044250e+002
1.295557e+003, 5.033678e+002
1.296039e+003, 5.010402e+002
1.296521e+003, 5.007611e+002
1.297003e+003, 5.024404e+002
1.297486e+003, 5.038100e+002
1.297968e+003, 5.030619e+002
1.298450e+003, 5.027933e+002
1.298932e+003, 5.039191e+002
1.299414e+003, 5.053468e+002
1.299896e+003, 5.058893e+002
1.300378e+003, 5.057824e+002
1.300860e+003, 5.056413e+002
1.301343e+003, 5.054835e+002
1.301825e+003, 5.051977e+002
##END=



