##NAMES=Sulfoborite
##RRUFFID=R140689
##IDEAL CHEMISTRY=Mg_3_[B(OH)_4_]_2_(S^6+^O_4_)(OH,F)_2_
##LOCALITY=Gröna mine, Bernburg, Stassfurt Potash Deposit, Saxony-Anhalt, Germany
##OWNER=RRUFF
##SOURCE=Rock Currier
##DESCRIPTION=Colorless prismatic orthorhombic crystals. Locality is listed as 'Bernburg-Gröna, Bezirk Halle', 'Gröna Mine, Bernburg' is a guess.
##STATUS=The identification of this mineral has been confirmed only by single crystal X-ray diffraction.
##URL=rruff.info/R140689
8.758203e+001, 1.035563e+003
8.806415e+001, 9.981033e+002
8.854626e+001, 9.914855e+002
8.902838e+001, 1.027588e+003
8.951050e+001, 1.074825e+003
8.999261e+001, 1.123292e+003
9.047473e+001, 1.171895e+003
9.095685e+001, 1.220817e+003
9.143896e+001, 1.270560e+003
9.192108e+001, 1.321202e+003
9.240320e+001, 1.370341e+003
9.288531e+001, 1.399980e+003
9.336743e+001, 1.401927e+003
9.384955e+001, 1.384690e+003
9.433167e+001, 1.369598e+003
9.481378e+001, 1.351279e+003
9.529590e+001, 1.335111e+003
9.577802e+001, 1.321529e+003
9.626013e+001, 1.311037e+003
9.674225e+001, 1.304110e+003
9.722437e+001, 1.300200e+003
9.770648e+001, 1.296878e+003
9.818860e+001, 1.293016e+003
9.867072e+001, 1.290153e+003
9.915283e+001, 1.288866e+003
9.963495e+001, 1.289126e+003
1.001171e+002, 1.290696e+003
1.005992e+002, 1.293286e+003
1.010813e+002, 1.296733e+003
1.015634e+002, 1.301449e+003
1.020455e+002, 1.308404e+003
1.025277e+002, 1.315223e+003
1.030098e+002, 1.320303e+003
1.034919e+002, 1.322985e+003
1.039740e+002, 1.323345e+003
1.044561e+002, 1.321594e+003
1.049382e+002, 1.318086e+003
1.054204e+002, 1.311696e+003
1.059025e+002, 1.301306e+003
1.063846e+002, 1.287898e+003
1.068667e+002, 1.272818e+003
1.073488e+002, 1.256435e+003
1.078309e+002, 1.239171e+003
1.083131e+002, 1.224391e+003
1.087952e+002, 1.211312e+003
1.092773e+002, 1.200712e+003
1.097594e+002, 1.193344e+003
1.102415e+002, 1.189116e+003
1.107236e+002, 1.187118e+003
1.112058e+002, 1.187194e+003
1.116879e+002, 1.189103e+003
1.121700e+002, 1.192117e+003
1.126521e+002, 1.197701e+003
1.131342e+002, 1.203930e+003
1.136163e+002, 1.207691e+003
1.140985e+002, 1.208704e+003
1.145806e+002, 1.207284e+003
1.150627e+002, 1.202604e+003
1.155448e+002, 1.195844e+003
1.160269e+002, 1.189752e+003
1.165090e+002, 1.186144e+003
1.169912e+002, 1.184987e+003
1.174733e+002, 1.184637e+003
1.179554e+002, 1.185314e+003
1.184375e+002, 1.186707e+003
1.189196e+002, 1.188823e+003
1.194017e+002, 1.191585e+003
1.198839e+002, 1.194799e+003
1.203660e+002, 1.198503e+003
1.208481e+002, 1.203491e+003
1.213302e+002, 1.206728e+003
1.218123e+002, 1.208680e+003
1.222944e+002, 1.208991e+003
1.227766e+002, 1.207145e+003
1.232587e+002, 1.203082e+003
1.237408e+002, 1.197443e+003
1.242229e+002, 1.191480e+003
1.247050e+002, 1.185262e+003
1.251871e+002, 1.178461e+003
1.256693e+002, 1.170925e+003
1.261514e+002, 1.162822e+003
1.266335e+002, 1.154292e+003
1.271156e+002, 1.145273e+003
1.275977e+002, 1.136060e+003
1.280798e+002, 1.127433e+003
1.285620e+002, 1.118748e+003
1.290441e+002, 1.111255e+003
1.295262e+002, 1.105839e+003
1.300083e+002, 1.102175e+003
1.304904e+002, 1.098973e+003
1.309725e+002, 1.095544e+003
1.314547e+002, 1.092273e+003
1.319368e+002, 1.089904e+003
1.324189e+002, 1.089002e+003
1.329010e+002, 1.088393e+003
1.333831e+002, 1.086754e+003
1.338652e+002, 1.083870e+003
1.343474e+002, 1.081175e+003
1.348295e+002, 1.079426e+003
1.353116e+002, 1.078280e+003
1.357937e+002, 1.077420e+003
1.362758e+002, 1.076679e+003
1.367579e+002, 1.076180e+003
1.372401e+002, 1.076308e+003
1.377222e+002, 1.077472e+003
1.382043e+002, 1.078667e+003
1.386864e+002, 1.079398e+003
1.391685e+002, 1.079948e+003
1.396507e+002, 1.080775e+003
1.401328e+002, 1.082244e+003
1.406149e+002, 1.084328e+003
1.410970e+002, 1.086068e+003
1.415791e+002, 1.086633e+003
1.420612e+002, 1.087622e+003
1.425434e+002, 1.089973e+003
1.430255e+002, 1.093219e+003
1.435076e+002, 1.096179e+003
1.439897e+002, 1.097750e+003
1.444718e+002, 1.097695e+003
1.449539e+002, 1.097423e+003
1.454361e+002, 1.097373e+003
1.459182e+002, 1.096831e+003
1.464003e+002, 1.095458e+003
1.468824e+002, 1.093198e+003
1.473645e+002, 1.090079e+003
1.478466e+002, 1.085955e+003
1.483288e+002, 1.080265e+003
1.488109e+002, 1.075565e+003
1.492930e+002, 1.072475e+003
1.497751e+002, 1.070103e+003
1.502572e+002, 1.067391e+003
1.507393e+002, 1.064009e+003
1.512215e+002, 1.060802e+003
1.517036e+002, 1.059181e+003
1.521857e+002, 1.059008e+003
1.526678e+002, 1.059181e+003
1.531499e+002, 1.059424e+003
1.536320e+002, 1.059762e+003
1.541142e+002, 1.060119e+003
1.545963e+002, 1.060084e+003
1.550784e+002, 1.060724e+003
1.555605e+002, 1.063120e+003
1.560426e+002, 1.067238e+003
1.565247e+002, 1.071934e+003
1.570069e+002, 1.076059e+003
1.574890e+002, 1.079651e+003
1.579711e+002, 1.084679e+003
1.584532e+002, 1.091964e+003
1.589353e+002, 1.100726e+003
1.594174e+002, 1.110638e+003
1.598996e+002, 1.121662e+003
1.603817e+002, 1.133375e+003
1.608638e+002, 1.145838e+003
1.613459e+002, 1.159840e+003
1.618280e+002, 1.171770e+003
1.623102e+002, 1.182371e+003
1.627923e+002, 1.190150e+003
1.632744e+002, 1.194311e+003
1.637565e+002, 1.194551e+003
1.642386e+002, 1.190425e+003
1.647207e+002, 1.180478e+003
1.652029e+002, 1.160059e+003
1.656850e+002, 1.141061e+003
1.661671e+002, 1.123235e+003
1.666492e+002, 1.107604e+003
1.671313e+002, 1.094893e+003
1.676134e+002, 1.085536e+003
1.680956e+002, 1.079272e+003
1.685777e+002, 1.075420e+003
1.690598e+002, 1.076110e+003
1.695419e+002, 1.076962e+003
1.700240e+002, 1.078478e+003
1.705061e+002, 1.079819e+003
1.709883e+002, 1.079830e+003
1.714704e+002, 1.077902e+003
1.719525e+002, 1.074322e+003
1.724346e+002, 1.070146e+003
1.729167e+002, 1.065336e+003
1.733988e+002, 1.060114e+003
1.738810e+002, 1.053613e+003
1.743631e+002, 1.046612e+003
1.748452e+002, 1.041381e+003
1.753273e+002, 1.039676e+003
1.758094e+002, 1.040411e+003
1.762915e+002, 1.039435e+003
1.767737e+002, 1.035309e+003
1.772558e+002, 1.031205e+003
1.777379e+002, 1.028818e+003
1.782200e+002, 1.028112e+003
1.787021e+002, 1.028644e+003
1.791842e+002, 1.030798e+003
1.796664e+002, 1.033901e+003
1.801485e+002, 1.036557e+003
1.806306e+002, 1.038277e+003
1.811127e+002, 1.039866e+003
1.815948e+002, 1.042240e+003
1.820769e+002, 1.045518e+003
1.825591e+002, 1.048865e+003
1.830412e+002, 1.051703e+003
1.835233e+002, 1.054392e+003
1.840054e+002, 1.057348e+003
1.844875e+002, 1.060706e+003
1.849696e+002, 1.064344e+003
1.854518e+002, 1.068306e+003
1.859339e+002, 1.073295e+003
1.864160e+002, 1.076882e+003
1.868981e+002, 1.078892e+003
1.873802e+002, 1.079047e+003
1.878623e+002, 1.076759e+003
1.883445e+002, 1.071542e+003
1.888266e+002, 1.063940e+003
1.893087e+002, 1.055735e+003
1.897908e+002, 1.045880e+003
1.902729e+002, 1.036835e+003
1.907550e+002, 1.028676e+003
1.912372e+002, 1.021695e+003
1.917193e+002, 1.016420e+003
1.922014e+002, 1.013268e+003
1.926835e+002, 1.011976e+003
1.931656e+002, 1.010798e+003
1.936477e+002, 1.009924e+003
1.941299e+002, 1.009000e+003
1.946120e+002, 1.007640e+003
1.950941e+002, 1.006222e+003
1.955762e+002, 1.005313e+003
1.960583e+002, 1.005274e+003
1.965404e+002, 1.006095e+003
1.970226e+002, 1.007709e+003
1.975047e+002, 1.011308e+003
1.979868e+002, 1.014385e+003
1.984689e+002, 1.015651e+003
1.989510e+002, 1.015774e+003
1.994331e+002, 1.016280e+003
1.999153e+002, 1.018230e+003
2.003974e+002, 1.021611e+003
2.008795e+002, 1.025486e+003
2.013616e+002, 1.030451e+003
2.018437e+002, 1.035214e+003
2.023258e+002, 1.039315e+003
2.028080e+002, 1.042754e+003
2.032901e+002, 1.045746e+003
2.037722e+002, 1.048572e+003
2.042543e+002, 1.051067e+003
2.047364e+002, 1.052322e+003
2.052185e+002, 1.051629e+003
2.057007e+002, 1.050413e+003
2.061828e+002, 1.050119e+003
2.066649e+002, 1.050544e+003
2.071470e+002, 1.049455e+003
2.076291e+002, 1.044701e+003
2.081112e+002, 1.036951e+003
2.085934e+002, 1.030216e+003
2.090755e+002, 1.024501e+003
2.095576e+002, 1.019987e+003
2.100397e+002, 1.017330e+003
2.105218e+002, 1.016595e+003
2.110039e+002, 1.015921e+003
2.114861e+002, 1.013520e+003
2.119682e+002, 1.010409e+003
2.124503e+002, 1.008719e+003
2.129324e+002, 1.009919e+003
2.134145e+002, 1.011966e+003
2.138967e+002, 1.012094e+003
2.143788e+002, 1.009848e+003
2.148609e+002, 1.007805e+003
2.153430e+002, 1.007295e+003
2.158251e+002, 1.007923e+003
2.163072e+002, 1.009535e+003
2.167894e+002, 1.012652e+003
2.172715e+002, 1.016216e+003
2.177536e+002, 1.018460e+003
2.182357e+002, 1.019204e+003
2.187178e+002, 1.019033e+003
2.191999e+002, 1.017362e+003
2.196821e+002, 1.015256e+003
2.201642e+002, 1.014097e+003
2.206463e+002, 1.014791e+003
2.211284e+002, 1.016284e+003
2.216105e+002, 1.016095e+003
2.220926e+002, 1.013433e+003
2.225748e+002, 1.010633e+003
2.230569e+002, 1.008340e+003
2.235390e+002, 1.006378e+003
2.240211e+002, 1.004560e+003
2.245032e+002, 1.002814e+003
2.249853e+002, 1.001149e+003
2.254675e+002, 9.995292e+002
2.259496e+002, 9.979285e+002
2.264317e+002, 9.964674e+002
2.269138e+002, 9.947692e+002
2.273959e+002, 9.933444e+002
2.278780e+002, 9.928433e+002
2.283602e+002, 9.936171e+002
2.288423e+002, 9.952946e+002
2.293244e+002, 9.967216e+002
2.298065e+002, 9.980341e+002
2.302886e+002, 9.987955e+002
2.307707e+002, 9.982028e+002
2.312529e+002, 9.973218e+002
2.317350e+002, 9.974749e+002
2.322171e+002, 9.993096e+002
2.326992e+002, 1.002231e+003
2.331813e+002, 1.004345e+003
2.336634e+002, 1.005244e+003
2.341456e+002, 1.005683e+003
2.346277e+002, 1.005756e+003
2.351098e+002, 1.005397e+003
2.355919e+002, 1.004526e+003
2.360740e+002, 1.003109e+003
2.365561e+002, 1.001168e+003
2.370383e+002, 9.987543e+002
2.375204e+002, 9.940584e+002
2.380025e+002, 9.911038e+002
2.384846e+002, 9.916439e+002
2.389667e+002, 9.935717e+002
2.394488e+002, 9.942025e+002
2.399310e+002, 9.923904e+002
2.404131e+002, 9.891776e+002
2.408952e+002, 9.871909e+002
2.413773e+002, 9.872324e+002
2.418594e+002, 9.874025e+002
2.423415e+002, 9.873679e+002
2.428237e+002, 9.874238e+002
2.433058e+002, 9.879675e+002
2.437879e+002, 9.891573e+002
2.442700e+002, 9.908146e+002
2.447521e+002, 9.926680e+002
2.452342e+002, 9.951418e+002
2.457164e+002, 9.969365e+002
2.461985e+002, 9.973876e+002
2.466806e+002, 9.971764e+002
2.471627e+002, 9.970804e+002
2.476448e+002, 9.972965e+002
2.481269e+002, 9.980063e+002
2.486091e+002, 9.998234e+002
2.490912e+002, 1.003246e+003
2.495733e+002, 1.005877e+003
2.500554e+002, 1.006985e+003
2.505375e+002, 1.007111e+003
2.510196e+002, 1.006888e+003
2.515018e+002, 1.006407e+003
2.519839e+002, 1.006012e+003
2.524660e+002, 1.006481e+003
2.529481e+002, 1.007932e+003
2.534302e+002, 1.008750e+003
2.539123e+002, 1.008032e+003
2.543945e+002, 1.006594e+003
2.548766e+002, 1.005790e+003
2.553587e+002, 1.006040e+003
2.558408e+002, 1.006404e+003
2.563229e+002, 1.005745e+003
2.568051e+002, 1.004209e+003
2.572872e+002, 1.002237e+003
2.577693e+002, 9.991367e+002
2.582514e+002, 9.958800e+002
2.587335e+002, 9.940804e+002
2.592156e+002, 9.940783e+002
2.596978e+002, 9.950598e+002
2.601799e+002, 9.967842e+002
2.606620e+002, 9.989980e+002
2.611441e+002, 1.000794e+003
2.616262e+002, 1.001241e+003
2.621083e+002, 1.001289e+003
2.625905e+002, 1.002635e+003
2.630726e+002, 1.005632e+003
2.635547e+002, 1.008954e+003
2.640368e+002, 1.011218e+003
2.645189e+002, 1.013012e+003
2.650010e+002, 1.015582e+003
2.654832e+002, 1.019934e+003
2.659653e+002, 1.025067e+003
2.664474e+002, 1.029435e+003
2.669295e+002, 1.032946e+003
2.674116e+002, 1.036029e+003
2.678937e+002, 1.037556e+003
2.683759e+002, 1.039077e+003
2.688580e+002, 1.043237e+003
2.693401e+002, 1.052263e+003
2.698222e+002, 1.063013e+003
2.703043e+002, 1.070737e+003
2.707864e+002, 1.074875e+003
2.712686e+002, 1.078415e+003
2.717507e+002, 1.083617e+003
2.722328e+002, 1.088730e+003
2.727149e+002, 1.091852e+003
2.731970e+002, 1.092521e+003
2.736791e+002, 1.090961e+003
2.741613e+002, 1.087191e+003
2.746434e+002, 1.080925e+003
2.751255e+002, 1.073734e+003
2.756076e+002, 1.065555e+003
2.760897e+002, 1.056930e+003
2.765718e+002, 1.048005e+003
2.770540e+002, 1.038705e+003
2.775361e+002, 1.029722e+003
2.780182e+002, 1.021900e+003
2.785003e+002, 1.015401e+003
2.789824e+002, 1.009096e+003
2.794645e+002, 1.002630e+003
2.799467e+002, 9.963323e+002
2.804288e+002, 9.905670e+002
2.809109e+002, 9.853781e+002
2.813930e+002, 9.803367e+002
2.818751e+002, 9.745526e+002
2.823572e+002, 9.678317e+002
2.828394e+002, 9.629061e+002
2.833215e+002, 9.620206e+002
2.838036e+002, 9.616904e+002
2.842857e+002, 9.596674e+002
2.847678e+002, 9.560552e+002
2.852499e+002, 9.526531e+002
2.857321e+002, 9.514581e+002
2.862142e+002, 9.525429e+002
2.866963e+002, 9.526569e+002
2.871784e+002, 9.506848e+002
2.876605e+002, 9.486101e+002
2.881426e+002, 9.475422e+002
2.886248e+002, 9.472247e+002
2.891069e+002, 9.467077e+002
2.895890e+002, 9.449619e+002
2.900711e+002, 9.421480e+002
2.905532e+002, 9.405639e+002
2.910353e+002, 9.412392e+002
2.915175e+002, 9.419221e+002
2.919996e+002, 9.416793e+002
2.924817e+002, 9.408049e+002
2.929638e+002, 9.398789e+002
2.934459e+002, 9.392042e+002
2.939280e+002, 9.387766e+002
2.944102e+002, 9.386902e+002
2.948923e+002, 9.396336e+002
2.953744e+002, 9.398024e+002
2.958565e+002, 9.380461e+002
2.963386e+002, 9.355120e+002
2.968207e+002, 9.337111e+002
2.973029e+002, 9.334398e+002
2.977850e+002, 9.341449e+002
2.982671e+002, 9.344459e+002
2.987492e+002, 9.341005e+002
2.992313e+002, 9.338610e+002
2.997134e+002, 9.343061e+002
3.001956e+002, 9.347338e+002
3.006777e+002, 9.342828e+002
3.011598e+002, 9.326439e+002
3.016419e+002, 9.307010e+002
3.021240e+002, 9.300239e+002
3.026061e+002, 9.310443e+002
3.030883e+002, 9.321232e+002
3.035704e+002, 9.332966e+002
3.040525e+002, 9.342463e+002
3.045346e+002, 9.344996e+002
3.050167e+002, 9.340540e+002
3.054988e+002, 9.336544e+002
3.059810e+002, 9.344515e+002
3.064631e+002, 9.368876e+002
3.069452e+002, 9.384203e+002
3.074273e+002, 9.381336e+002
3.079094e+002, 9.374733e+002
3.083915e+002, 9.368954e+002
3.088737e+002, 9.365115e+002
3.093558e+002, 9.363627e+002
3.098379e+002, 9.363813e+002
3.103200e+002, 9.365349e+002
3.108021e+002, 9.375182e+002
3.112842e+002, 9.404174e+002
3.117664e+002, 9.430834e+002
3.122485e+002, 9.447705e+002
3.127306e+002, 9.456282e+002
3.132127e+002, 9.460992e+002
3.136948e+002, 9.464413e+002
3.141769e+002, 9.466526e+002
3.146591e+002, 9.466628e+002
3.151412e+002, 9.459936e+002
3.156233e+002, 9.458361e+002
3.161054e+002, 9.469091e+002
3.165875e+002, 9.485391e+002
3.170696e+002, 9.497771e+002
3.175518e+002, 9.501126e+002
3.180339e+002, 9.499916e+002
3.185160e+002, 9.506155e+002
3.189981e+002, 9.525639e+002
3.194802e+002, 9.540902e+002
3.199623e+002, 9.548849e+002
3.204445e+002, 9.551522e+002
3.209266e+002, 9.549269e+002
3.214087e+002, 9.542322e+002
3.218908e+002, 9.533817e+002
3.223729e+002, 9.527316e+002
3.228550e+002, 9.521383e+002
3.233372e+002, 9.522680e+002
3.238193e+002, 9.544736e+002
3.243014e+002, 9.564806e+002
3.247835e+002, 9.566715e+002
3.252656e+002, 9.550257e+002
3.257477e+002, 9.530055e+002
3.262299e+002, 9.523145e+002
3.267120e+002, 9.531622e+002
3.271941e+002, 9.529996e+002
3.276762e+002, 9.506481e+002
3.281583e+002, 9.482513e+002
3.286404e+002, 9.465365e+002
3.291226e+002, 9.455164e+002
3.296047e+002, 9.450438e+002
3.300868e+002, 9.452070e+002
3.305689e+002, 9.458666e+002
3.310510e+002, 9.460488e+002
3.315331e+002, 9.453156e+002
3.320153e+002, 9.447636e+002
3.324974e+002, 9.448373e+002
3.329795e+002, 9.453242e+002
3.334616e+002, 9.459543e+002
3.339437e+002, 9.466652e+002
3.344258e+002, 9.473644e+002
3.349080e+002, 9.478561e+002
3.353901e+002, 9.481994e+002
3.358722e+002, 9.482249e+002
3.363543e+002, 9.479276e+002
3.368365e+002, 9.473193e+002
3.373186e+002, 9.459534e+002
3.378007e+002, 9.436295e+002
3.382828e+002, 9.419388e+002
3.387649e+002, 9.433856e+002
3.392470e+002, 9.484850e+002
3.397292e+002, 9.527889e+002
3.402113e+002, 9.547266e+002
3.406934e+002, 9.561014e+002
3.411755e+002, 9.579615e+002
3.416576e+002, 9.603521e+002
3.421397e+002, 9.628414e+002
3.426219e+002, 9.649816e+002
3.431040e+002, 9.668173e+002
3.435861e+002, 9.689263e+002
3.440682e+002, 9.712664e+002
3.445503e+002, 9.739994e+002
3.450324e+002, 9.775049e+002
3.455146e+002, 9.814271e+002
3.459967e+002, 9.848773e+002
3.464788e+002, 9.871211e+002
3.469609e+002, 9.886474e+002
3.474430e+002, 9.906859e+002
3.479251e+002, 9.934513e+002
3.484073e+002, 9.961501e+002
3.488894e+002, 9.983351e+002
3.493715e+002, 1.000267e+003
3.498536e+002, 1.002180e+003
3.503357e+002, 1.003999e+003
3.508178e+002, 1.006140e+003
3.513000e+002, 1.009506e+003
3.517821e+002, 1.014210e+003
3.522642e+002, 1.018047e+003
3.527463e+002, 1.020036e+003
3.532284e+002, 1.020967e+003
3.537105e+002, 1.021532e+003
3.541927e+002, 1.021723e+003
3.546748e+002, 1.022114e+003
3.551569e+002, 1.023462e+003
3.556390e+002, 1.025453e+003
3.561211e+002, 1.026627e+003
3.566032e+002, 1.026521e+003
3.570854e+002, 1.025870e+003
3.575675e+002, 1.025374e+003
3.580496e+002, 1.024967e+003
3.585317e+002, 1.024296e+003
3.590138e+002, 1.022806e+003
3.594959e+002, 1.021109e+003
3.599781e+002, 1.020365e+003
3.604602e+002, 1.020792e+003
3.609423e+002, 1.021151e+003
3.614244e+002, 1.020815e+003
3.619065e+002, 1.019714e+003
3.623886e+002, 1.017637e+003
3.628708e+002, 1.013800e+003
3.633529e+002, 1.009746e+003
3.638350e+002, 1.006722e+003
3.643171e+002, 1.004632e+003
3.647992e+002, 1.002859e+003
3.652813e+002, 1.001339e+003
3.657635e+002, 9.997933e+002
3.662456e+002, 9.976520e+002
3.667277e+002, 9.947996e+002
3.672098e+002, 9.918167e+002
3.676919e+002, 9.890020e+002
3.681740e+002, 9.862031e+002
3.686562e+002, 9.830623e+002
3.691383e+002, 9.794392e+002
3.696204e+002, 9.757271e+002
3.701025e+002, 9.725035e+002
3.705846e+002, 9.698337e+002
3.710667e+002, 9.667712e+002
3.715489e+002, 9.625599e+002
3.720310e+002, 9.583294e+002
3.725131e+002, 9.553182e+002
3.729952e+002, 9.534958e+002
3.734773e+002, 9.517415e+002
3.739594e+002, 9.492333e+002
3.744416e+002, 9.460226e+002
3.749237e+002, 9.430057e+002
3.754058e+002, 9.403057e+002
3.758879e+002, 9.376520e+002
3.763700e+002, 9.348378e+002
3.768521e+002, 9.319921e+002
3.773343e+002, 9.294274e+002
3.778164e+002, 9.272920e+002
3.782985e+002, 9.254578e+002
3.787806e+002, 9.236353e+002
3.792627e+002, 9.217794e+002
3.797448e+002, 9.200029e+002
3.802270e+002, 9.183934e+002
3.807091e+002, 9.168239e+002
3.811912e+002, 9.149847e+002
3.816733e+002, 9.128884e+002
3.821554e+002, 9.110945e+002
3.826375e+002, 9.102521e+002
3.831197e+002, 9.105641e+002
3.836018e+002, 9.108738e+002
3.840839e+002, 9.117468e+002
3.845660e+002, 9.120828e+002
3.850481e+002, 9.108597e+002
3.855302e+002, 9.086558e+002
3.860124e+002, 9.069480e+002
3.864945e+002, 9.067568e+002
3.869766e+002, 9.077382e+002
3.874587e+002, 9.080540e+002
3.879408e+002, 9.074668e+002
3.884229e+002, 9.064080e+002
3.889051e+002, 9.043000e+002
3.893872e+002, 9.020466e+002
3.898693e+002, 9.007470e+002
3.903514e+002, 9.007103e+002
3.908335e+002, 9.010681e+002
3.913156e+002, 9.004670e+002
3.917978e+002, 8.987103e+002
3.922799e+002, 8.965002e+002
3.927620e+002, 8.925289e+002
3.932441e+002, 8.892535e+002
3.937262e+002, 8.885227e+002
3.942083e+002, 8.898152e+002
3.946905e+002, 8.909709e+002
3.951726e+002, 8.900894e+002
3.956547e+002, 8.874359e+002
3.961368e+002, 8.857833e+002
3.966189e+002, 8.856476e+002
3.971010e+002, 8.858557e+002
3.975832e+002, 8.857462e+002
3.980653e+002, 8.858055e+002
3.985474e+002, 8.869976e+002
3.990295e+002, 8.899472e+002
3.995116e+002, 8.930354e+002
3.999937e+002, 8.933438e+002
4.004759e+002, 8.903049e+002
4.009580e+002, 8.874521e+002
4.014401e+002, 8.859340e+002
4.019222e+002, 8.846613e+002
4.024043e+002, 8.828279e+002
4.028864e+002, 8.804111e+002
4.033686e+002, 8.780325e+002
4.038507e+002, 8.763632e+002
4.043328e+002, 8.751632e+002
4.048149e+002, 8.732331e+002
4.052970e+002, 8.700781e+002
4.057791e+002, 8.670912e+002
4.062613e+002, 8.652886e+002
4.067434e+002, 8.643213e+002
4.072255e+002, 8.635555e+002
4.077076e+002, 8.630021e+002
4.081897e+002, 8.623851e+002
4.086718e+002, 8.614187e+002
4.091540e+002, 8.601026e+002
4.096361e+002, 8.584206e+002
4.101182e+002, 8.559084e+002
4.106003e+002, 8.534409e+002
4.110824e+002, 8.526896e+002
4.115645e+002, 8.541967e+002
4.120467e+002, 8.551878e+002
4.125288e+002, 8.538605e+002
4.130109e+002, 8.513649e+002
4.134930e+002, 8.499230e+002
4.139751e+002, 8.500731e+002
4.144572e+002, 8.503488e+002
4.149394e+002, 8.491060e+002
4.154215e+002, 8.462604e+002
4.159036e+002, 8.440817e+002
4.163857e+002, 8.430879e+002
4.168678e+002, 8.424228e+002
4.173499e+002, 8.415238e+002
4.178321e+002, 8.404745e+002
4.183142e+002, 8.397527e+002
4.187963e+002, 8.397433e+002
4.192784e+002, 8.400554e+002
4.197605e+002, 8.392988e+002
4.202426e+002, 8.361353e+002
4.207248e+002, 8.337831e+002
4.212069e+002, 8.328287e+002
4.216890e+002, 8.327285e+002
4.221711e+002, 8.332093e+002
4.226532e+002, 8.340995e+002
4.231353e+002, 8.348817e+002
4.236175e+002, 8.349416e+002
4.240996e+002, 8.342043e+002
4.245817e+002, 8.331106e+002
4.250638e+002, 8.313290e+002
4.255459e+002, 8.295819e+002
4.260280e+002, 8.278386e+002
4.265102e+002, 8.263727e+002
4.269923e+002, 8.257828e+002
4.274744e+002, 8.265022e+002
4.279565e+002, 8.280014e+002
4.284386e+002, 8.284586e+002
4.289207e+002, 8.272160e+002
4.294029e+002, 8.260783e+002
4.298850e+002, 8.251886e+002
4.303671e+002, 8.245434e+002
4.308492e+002, 8.241936e+002
4.313313e+002, 8.241240e+002
4.318134e+002, 8.242111e+002
4.322956e+002, 8.243936e+002
4.327777e+002, 8.246767e+002
4.332598e+002, 8.248000e+002
4.337419e+002, 8.248821e+002
4.342241e+002, 8.246005e+002
4.347062e+002, 8.232861e+002
4.351883e+002, 8.215981e+002
4.356704e+002, 8.208396e+002
4.361525e+002, 8.217970e+002
4.366346e+002, 8.236530e+002
4.371168e+002, 8.253013e+002
4.375989e+002, 8.267654e+002
4.380810e+002, 8.277555e+002
4.385631e+002, 8.279436e+002
4.390452e+002, 8.277474e+002
4.395273e+002, 8.277114e+002
4.400095e+002, 8.278829e+002
4.404916e+002, 8.278400e+002
4.409737e+002, 8.270149e+002
4.414558e+002, 8.258811e+002
4.419379e+002, 8.256790e+002
4.424200e+002, 8.267468e+002
4.429022e+002, 8.275072e+002
4.433843e+002, 8.261385e+002
4.438664e+002, 8.231770e+002
4.443485e+002, 8.219029e+002
4.448306e+002, 8.242554e+002
4.453127e+002, 8.266242e+002
4.457949e+002, 8.266414e+002
4.462770e+002, 8.250259e+002
4.467591e+002, 8.237693e+002
4.472412e+002, 8.237247e+002
4.477233e+002, 8.242292e+002
4.482054e+002, 8.239550e+002
4.486876e+002, 8.221019e+002
4.491697e+002, 8.213512e+002
4.496518e+002, 8.228720e+002
4.501339e+002, 8.247669e+002
4.506160e+002, 8.253383e+002
4.510981e+002, 8.247231e+002
4.515803e+002, 8.243873e+002
4.520624e+002, 8.255873e+002
4.525445e+002, 8.281758e+002
4.530266e+002, 8.301645e+002
4.535087e+002, 8.306422e+002
4.539908e+002, 8.315374e+002
4.544730e+002, 8.333244e+002
4.549551e+002, 8.355609e+002
4.554372e+002, 8.378510e+002
4.559193e+002, 8.400304e+002
4.564014e+002, 8.419667e+002
4.568835e+002, 8.433760e+002
4.573657e+002, 8.440863e+002
4.578478e+002, 8.450051e+002
4.583299e+002, 8.461585e+002
4.588120e+002, 8.475265e+002
4.592941e+002, 8.493710e+002
4.597762e+002, 8.514228e+002
4.602584e+002, 8.531354e+002
4.607405e+002, 8.543061e+002
4.612226e+002, 8.548417e+002
4.617047e+002, 8.541052e+002
4.621868e+002, 8.515761e+002
4.626689e+002, 8.503194e+002
4.631511e+002, 8.523668e+002
4.636332e+002, 8.555923e+002
4.641153e+002, 8.580275e+002
4.645974e+002, 8.595250e+002
4.650795e+002, 8.605853e+002
4.655616e+002, 8.614386e+002
4.660438e+002, 8.620951e+002
4.665259e+002, 8.623203e+002
4.670080e+002, 8.619135e+002
4.674901e+002, 8.621810e+002
4.679722e+002, 8.644962e+002
4.684543e+002, 8.684576e+002
4.689365e+002, 8.718272e+002
4.694186e+002, 8.743510e+002
4.699007e+002, 8.764358e+002
4.703828e+002, 8.778070e+002
4.708649e+002, 8.789069e+002
4.713470e+002, 8.808125e+002
4.718292e+002, 8.839462e+002
4.723113e+002, 8.876258e+002
4.727934e+002, 8.909867e+002
4.732755e+002, 8.943610e+002
4.737576e+002, 8.960390e+002
4.742397e+002, 8.945403e+002
4.747219e+002, 8.927036e+002
4.752040e+002, 8.924457e+002
4.756861e+002, 8.933587e+002
4.761682e+002, 8.939574e+002
4.766503e+002, 8.933148e+002
4.771324e+002, 8.915750e+002
4.776146e+002, 8.892883e+002
4.780967e+002, 8.861012e+002
4.785788e+002, 8.828721e+002
4.790609e+002, 8.807911e+002
4.795430e+002, 8.779626e+002
4.800251e+002, 8.720406e+002
4.805073e+002, 8.632623e+002
4.809894e+002, 8.547266e+002
4.814715e+002, 8.498538e+002
4.819536e+002, 8.483068e+002
4.824357e+002, 8.453549e+002
4.829178e+002, 8.402653e+002
4.834000e+002, 8.349874e+002
4.838821e+002, 8.299515e+002
4.843642e+002, 8.253845e+002
4.848463e+002, 8.216859e+002
4.853284e+002, 8.190399e+002
4.858105e+002, 8.169222e+002
4.862927e+002, 8.149833e+002
4.867748e+002, 8.131641e+002
4.872569e+002, 8.110922e+002
4.877390e+002, 8.085620e+002
4.882211e+002, 8.059955e+002
4.887032e+002, 8.037852e+002
4.891854e+002, 8.018985e+002
4.896675e+002, 8.004651e+002
4.901496e+002, 8.000219e+002
4.906317e+002, 7.996263e+002
4.911138e+002, 7.983663e+002
4.915959e+002, 7.964655e+002
4.920781e+002, 7.947980e+002
4.925602e+002, 7.937804e+002
4.930423e+002, 7.932576e+002
4.935244e+002, 7.929222e+002
4.940065e+002, 7.930911e+002
4.944886e+002, 7.928246e+002
4.949708e+002, 7.917547e+002
4.954529e+002, 7.904871e+002
4.959350e+002, 7.890875e+002
4.964171e+002, 7.878255e+002
4.968992e+002, 7.875744e+002
4.973813e+002, 7.892415e+002
4.978635e+002, 7.922518e+002
4.983456e+002, 7.929709e+002
4.988277e+002, 7.893648e+002
4.993098e+002, 7.864105e+002
4.997919e+002, 7.850129e+002
5.002740e+002, 7.844052e+002
5.007562e+002, 7.840685e+002
5.012383e+002, 7.838390e+002
5.017204e+002, 7.835546e+002
5.022025e+002, 7.831995e+002
5.026846e+002, 7.827388e+002
5.031667e+002, 7.815946e+002
5.036489e+002, 7.794869e+002
5.041310e+002, 7.772543e+002
5.046131e+002, 7.753855e+002
5.050952e+002, 7.736896e+002
5.055773e+002, 7.718171e+002
5.060594e+002, 7.695179e+002
5.065416e+002, 7.674794e+002
5.070237e+002, 7.665888e+002
5.075058e+002, 7.664768e+002
5.079879e+002, 7.657244e+002
5.084700e+002, 7.638419e+002
5.089521e+002, 7.618738e+002
5.094343e+002, 7.611614e+002
5.099164e+002, 7.616946e+002
5.103985e+002, 7.612380e+002
5.108806e+002, 7.584556e+002
5.113627e+002, 7.558293e+002
5.118448e+002, 7.551732e+002
5.123270e+002, 7.557307e+002
5.128091e+002, 7.555829e+002
5.132912e+002, 7.538870e+002
5.137733e+002, 7.515261e+002
5.142554e+002, 7.501008e+002
5.147375e+002, 7.499268e+002
5.152197e+002, 7.500287e+002
5.157018e+002, 7.509919e+002
5.161839e+002, 7.516515e+002
5.166660e+002, 7.509581e+002
5.171481e+002, 7.494587e+002
5.176302e+002, 7.486003e+002
5.181124e+002, 7.493421e+002
5.185945e+002, 7.509466e+002
5.190766e+002, 7.514967e+002
5.195587e+002, 7.507281e+002
5.200408e+002, 7.497186e+002
5.205229e+002, 7.480349e+002
5.210051e+002, 7.466644e+002
5.214872e+002, 7.466320e+002
5.219693e+002, 7.477316e+002
5.224514e+002, 7.484573e+002
5.229335e+002, 7.475259e+002
5.234156e+002, 7.457833e+002
5.238978e+002, 7.448427e+002
5.243799e+002, 7.447595e+002
5.248620e+002, 7.448856e+002
5.253441e+002, 7.451964e+002
5.258262e+002, 7.453239e+002
5.263083e+002, 7.444006e+002
5.267905e+002, 7.420510e+002
5.272726e+002, 7.400618e+002
5.277547e+002, 7.388967e+002
5.282368e+002, 7.384109e+002
5.287189e+002, 7.388030e+002
5.292010e+002, 7.399078e+002
5.296832e+002, 7.406917e+002
5.301653e+002, 7.402750e+002
5.306474e+002, 7.389158e+002
5.311295e+002, 7.383850e+002
5.316116e+002, 7.400877e+002
5.320938e+002, 7.408361e+002
5.325759e+002, 7.395589e+002
5.330580e+002, 7.377054e+002
5.335401e+002, 7.365267e+002
5.340222e+002, 7.362182e+002
5.345043e+002, 7.362123e+002
5.349865e+002, 7.358751e+002
5.354686e+002, 7.352965e+002
5.359507e+002, 7.357123e+002
5.364328e+002, 7.379598e+002
5.369149e+002, 7.396250e+002
5.373970e+002, 7.393293e+002
5.378792e+002, 7.383015e+002
5.383613e+002, 7.378624e+002
5.388434e+002, 7.383232e+002
5.393255e+002, 7.388033e+002
5.398076e+002, 7.385950e+002
5.402897e+002, 7.379166e+002
5.407719e+002, 7.373491e+002
5.412540e+002, 7.369921e+002
5.417361e+002, 7.365591e+002
5.422182e+002, 7.356293e+002
5.427003e+002, 7.344679e+002
5.431824e+002, 7.342367e+002
5.436646e+002, 7.359472e+002
5.441467e+002, 7.372474e+002
5.446288e+002, 7.370262e+002
5.451109e+002, 7.360558e+002
5.455930e+002, 7.352786e+002
5.460751e+002, 7.349182e+002
5.465573e+002, 7.347848e+002
5.470394e+002, 7.346630e+002
5.475215e+002, 7.345397e+002
5.480036e+002, 7.347930e+002
5.484857e+002, 7.356363e+002
5.489678e+002, 7.366335e+002
5.494500e+002, 7.381952e+002
5.499321e+002, 7.396221e+002
5.504142e+002, 7.399783e+002
5.508963e+002, 7.390833e+002
5.513784e+002, 7.379252e+002
5.518605e+002, 7.374835e+002
5.523427e+002, 7.377380e+002
5.528248e+002, 7.384784e+002
5.533069e+002, 7.399440e+002
5.537890e+002, 7.413915e+002
5.542711e+002, 7.424586e+002
5.547532e+002, 7.432161e+002
5.552354e+002, 7.436617e+002
5.557175e+002, 7.436428e+002
5.561996e+002, 7.437296e+002
5.566817e+002, 7.446005e+002
5.571638e+002, 7.457728e+002
5.576459e+002, 7.461049e+002
5.581281e+002, 7.453736e+002
5.586102e+002, 7.445485e+002
5.590923e+002, 7.443550e+002
5.595744e+002, 7.448068e+002
5.600565e+002, 7.460909e+002
5.605386e+002, 7.492071e+002
5.610208e+002, 7.517751e+002
5.615029e+002, 7.530969e+002
5.619850e+002, 7.536710e+002
5.624671e+002, 7.541614e+002
5.629492e+002, 7.546679e+002
5.634313e+002, 7.546896e+002
5.639135e+002, 7.535496e+002
5.643956e+002, 7.512761e+002
5.648777e+002, 7.496445e+002
5.653598e+002, 7.491810e+002
5.658419e+002, 7.485305e+002
5.663240e+002, 7.468864e+002
5.668062e+002, 7.450643e+002
5.672883e+002, 7.440897e+002
5.677704e+002, 7.441991e+002
5.682525e+002, 7.442765e+002
5.687346e+002, 7.433034e+002
5.692167e+002, 7.416386e+002
5.696989e+002, 7.402998e+002
5.701810e+002, 7.394034e+002
5.706631e+002, 7.385092e+002
5.711452e+002, 7.370711e+002
5.716273e+002, 7.355232e+002
5.721094e+002, 7.353721e+002
5.725916e+002, 7.377207e+002
5.730737e+002, 7.393793e+002
5.735558e+002, 7.388742e+002
5.740379e+002, 7.376143e+002
5.745200e+002, 7.369506e+002
5.750021e+002, 7.371009e+002
5.754843e+002, 7.378605e+002
5.759664e+002, 7.391740e+002
5.764485e+002, 7.408484e+002
5.769306e+002, 7.416491e+002
5.774127e+002, 7.407703e+002
5.778948e+002, 7.402803e+002
5.783770e+002, 7.406855e+002
5.788591e+002, 7.413528e+002
5.793412e+002, 7.419529e+002
5.798233e+002, 7.423674e+002
5.803054e+002, 7.424199e+002
5.807875e+002, 7.417325e+002
5.812697e+002, 7.406779e+002
5.817518e+002, 7.403663e+002
5.822339e+002, 7.409174e+002
5.827161e+002, 7.411070e+002
5.831982e+002, 7.404647e+002
5.836803e+002, 7.391883e+002
5.841624e+002, 7.375591e+002
5.846445e+002, 7.355622e+002
5.851266e+002, 7.334150e+002
5.856088e+002, 7.309417e+002
5.860909e+002, 7.285327e+002
5.865730e+002, 7.266700e+002
5.870551e+002, 7.252162e+002
5.875372e+002, 7.236171e+002
5.880193e+002, 7.216025e+002
5.885015e+002, 7.192946e+002
5.889836e+002, 7.169235e+002
5.894657e+002, 7.142640e+002
5.899478e+002, 7.120653e+002
5.904299e+002, 7.102166e+002
5.909120e+002, 7.088739e+002
5.913942e+002, 7.084444e+002
5.918763e+002, 7.085420e+002
5.923584e+002, 7.083383e+002
5.928405e+002, 7.073478e+002
5.933226e+002, 7.062266e+002
5.938047e+002, 7.061674e+002
5.942869e+002, 7.071376e+002
5.947690e+002, 7.075035e+002
5.952511e+002, 7.067004e+002
5.957332e+002, 7.057057e+002
5.962153e+002, 7.056177e+002
5.966974e+002, 7.060848e+002
5.971796e+002, 7.058622e+002
5.976617e+002, 7.036691e+002
5.981438e+002, 7.019187e+002
5.986259e+002, 7.023581e+002
5.991080e+002, 7.040037e+002
5.995901e+002, 7.051064e+002
6.000723e+002, 7.052480e+002
6.005544e+002, 7.052357e+002
6.010365e+002, 7.059464e+002
6.015186e+002, 7.074069e+002
6.020007e+002, 7.087345e+002
6.024828e+002, 7.105059e+002
6.029650e+002, 7.114180e+002
6.034471e+002, 7.102910e+002
6.039292e+002, 7.087807e+002
6.044113e+002, 7.084553e+002
6.048934e+002, 7.096171e+002
6.053755e+002, 7.116400e+002
6.058577e+002, 7.141479e+002
6.063398e+002, 7.170870e+002
6.068219e+002, 7.203671e+002
6.073040e+002, 7.240668e+002
6.077861e+002, 7.275995e+002
6.082682e+002, 7.304759e+002
6.087504e+002, 7.332113e+002
6.092325e+002, 7.366850e+002
6.097146e+002, 7.409494e+002
6.101967e+002, 7.455203e+002
6.106788e+002, 7.508191e+002
6.111609e+002, 7.559773e+002
6.116431e+002, 7.596783e+002
6.121252e+002, 7.624516e+002
6.126073e+002, 7.661482e+002
6.130894e+002, 7.717579e+002
6.135715e+002, 7.786663e+002
6.140536e+002, 7.855391e+002
6.145358e+002, 7.920766e+002
6.150179e+002, 7.992645e+002
6.155000e+002, 8.073730e+002
6.159821e+002, 8.158922e+002
6.164642e+002, 8.250234e+002
6.169464e+002, 8.343835e+002
6.174285e+002, 8.434481e+002
6.179106e+002, 8.521857e+002
6.183927e+002, 8.600515e+002
6.188748e+002, 8.664188e+002
6.193569e+002, 8.713865e+002
6.198391e+002, 8.758318e+002
6.203212e+002, 8.802147e+002
6.208033e+002, 8.827556e+002
6.212854e+002, 8.821155e+002
6.217675e+002, 8.782510e+002
6.222496e+002, 8.720074e+002
6.227318e+002, 8.621259e+002
6.232139e+002, 8.515752e+002
6.236960e+002, 8.415437e+002
6.241781e+002, 8.310543e+002
6.246602e+002, 8.186569e+002
6.251423e+002, 8.045222e+002
6.256245e+002, 7.904581e+002
6.261066e+002, 7.778459e+002
6.265887e+002, 7.665554e+002
6.270708e+002, 7.556801e+002
6.275529e+002, 7.449054e+002
6.280350e+002, 7.354273e+002
6.285172e+002, 7.280179e+002
6.289993e+002, 7.215400e+002
6.294814e+002, 7.152581e+002
6.299635e+002, 7.092351e+002
6.304456e+002, 7.040051e+002
6.309277e+002, 6.998571e+002
6.314099e+002, 6.965504e+002
6.318920e+002, 6.942523e+002
6.323741e+002, 6.926572e+002
6.328562e+002, 6.904097e+002
6.333383e+002, 6.870266e+002
6.338204e+002, 6.832500e+002
6.343026e+002, 6.797624e+002
6.347847e+002, 6.764323e+002
6.352668e+002, 6.747454e+002
6.357489e+002, 6.766335e+002
6.362310e+002, 6.776010e+002
6.367131e+002, 6.752355e+002
6.371953e+002, 6.718121e+002
6.376774e+002, 6.701572e+002
6.381595e+002, 6.707721e+002
6.386416e+002, 6.719114e+002
6.391237e+002, 6.719275e+002
6.396058e+002, 6.710321e+002
6.400880e+002, 6.702161e+002
6.405701e+002, 6.693619e+002
6.410522e+002, 6.691326e+002
6.415343e+002, 6.705211e+002
6.420164e+002, 6.720887e+002
6.424985e+002, 6.716199e+002
6.429807e+002, 6.689288e+002
6.434628e+002, 6.670596e+002
6.439449e+002, 6.672318e+002
6.444270e+002, 6.682432e+002
6.449091e+002, 6.693819e+002
6.453912e+002, 6.705339e+002
6.458734e+002, 6.715461e+002
6.463555e+002, 6.723516e+002
6.468376e+002, 6.730971e+002
6.473197e+002, 6.739245e+002
6.478018e+002, 6.747333e+002
6.482839e+002, 6.762217e+002
6.487661e+002, 6.789936e+002
6.492482e+002, 6.817255e+002
6.497303e+002, 6.839496e+002
6.502124e+002, 6.859400e+002
6.506945e+002, 6.879590e+002
6.511766e+002, 6.900517e+002
6.516588e+002, 6.924847e+002
6.521409e+002, 6.956483e+002
6.526230e+002, 6.992154e+002
6.531051e+002, 7.024130e+002
6.535872e+002, 7.052103e+002
6.540693e+002, 7.084280e+002
6.545515e+002, 7.127359e+002
6.550336e+002, 7.173098e+002
6.555157e+002, 7.205209e+002
6.559978e+002, 7.222898e+002
6.564799e+002, 7.226227e+002
6.569620e+002, 7.213712e+002
6.574442e+002, 7.188146e+002
6.579263e+002, 7.149627e+002
6.584084e+002, 7.099547e+002
6.588905e+002, 7.035087e+002
6.593726e+002, 6.955663e+002
6.598547e+002, 6.876367e+002
6.603369e+002, 6.820670e+002
6.608190e+002, 6.786760e+002
6.613011e+002, 6.745615e+002
6.617832e+002, 6.692725e+002
6.622653e+002, 6.640535e+002
6.627474e+002, 6.591628e+002
6.632296e+002, 6.549970e+002
6.637117e+002, 6.524536e+002
6.641938e+002, 6.521083e+002
6.646759e+002, 6.514644e+002
6.651580e+002, 6.495377e+002
6.656401e+002, 6.471373e+002
6.661223e+002, 6.448995e+002
6.666044e+002, 6.428631e+002
6.670865e+002, 6.408953e+002
6.675686e+002, 6.389139e+002
6.680507e+002, 6.371064e+002
6.685328e+002, 6.359676e+002
6.690150e+002, 6.358268e+002
6.694971e+002, 6.348723e+002
6.699792e+002, 6.320028e+002
6.704613e+002, 6.297005e+002
6.709434e+002, 6.293638e+002
6.714255e+002, 6.300983e+002
6.719077e+002, 6.306402e+002
6.723898e+002, 6.307727e+002
6.728719e+002, 6.304756e+002
6.733540e+002, 6.294111e+002
6.738361e+002, 6.280636e+002
6.743182e+002, 6.272070e+002
6.748004e+002, 6.268623e+002
6.752825e+002, 6.266178e+002
6.757646e+002, 6.262374e+002
6.762467e+002, 6.258272e+002
6.767288e+002, 6.256103e+002
6.772109e+002, 6.255177e+002
6.776931e+002, 6.257934e+002
6.781752e+002, 6.267631e+002
6.786573e+002, 6.277219e+002
6.791394e+002, 6.287832e+002
6.796215e+002, 6.294944e+002
6.801036e+002, 6.289330e+002
6.805858e+002, 6.267082e+002
6.810679e+002, 6.243260e+002
6.815500e+002, 6.234227e+002
6.820321e+002, 6.234884e+002
6.825142e+002, 6.229094e+002
6.829963e+002, 6.215098e+002
6.834785e+002, 6.205091e+002
6.839606e+002, 6.206965e+002
6.844427e+002, 6.215739e+002
6.849248e+002, 6.220002e+002
6.854069e+002, 6.218617e+002
6.858890e+002, 6.215157e+002
6.863712e+002, 6.203922e+002
6.868533e+002, 6.196481e+002
6.873354e+002, 6.204950e+002
6.878175e+002, 6.220240e+002
6.882996e+002, 6.223973e+002
6.887817e+002, 6.209459e+002
6.892639e+002, 6.192086e+002
6.897460e+002, 6.194327e+002
6.902281e+002, 6.212062e+002
6.907102e+002, 6.213016e+002
6.911923e+002, 6.190757e+002
6.916744e+002, 6.176039e+002
6.921566e+002, 6.187822e+002
6.926387e+002, 6.214002e+002
6.931208e+002, 6.231697e+002
6.936029e+002, 6.240941e+002
6.940850e+002, 6.243753e+002
6.945671e+002, 6.225783e+002
6.950493e+002, 6.215334e+002
6.955314e+002, 6.241052e+002
6.960135e+002, 6.285715e+002
6.964956e+002, 6.313474e+002
6.969777e+002, 6.311754e+002
6.974598e+002, 6.299552e+002
6.979420e+002, 6.301283e+002
6.984241e+002, 6.316241e+002
6.989062e+002, 6.327829e+002
6.993883e+002, 6.338310e+002
6.998704e+002, 6.338741e+002
7.003525e+002, 6.320482e+002
7.008347e+002, 6.293154e+002
7.013168e+002, 6.268713e+002
7.017989e+002, 6.247285e+002
7.022810e+002, 6.230390e+002
7.027631e+002, 6.223566e+002
7.032452e+002, 6.216865e+002
7.037274e+002, 6.201237e+002
7.042095e+002, 6.180839e+002
7.046916e+002, 6.164343e+002
7.051737e+002, 6.154551e+002
7.056558e+002, 6.148184e+002
7.061379e+002, 6.141962e+002
7.066201e+002, 6.135802e+002
7.071022e+002, 6.127960e+002
7.075843e+002, 6.116240e+002
7.080664e+002, 6.107913e+002
7.085485e+002, 6.107952e+002
7.090306e+002, 6.110428e+002
7.095128e+002, 6.110398e+002
7.099949e+002, 6.107760e+002
7.104770e+002, 6.103658e+002
7.109591e+002, 6.099744e+002
7.114412e+002, 6.093284e+002
7.119233e+002, 6.078873e+002
7.124055e+002, 6.061425e+002
7.128876e+002, 6.051951e+002
7.133697e+002, 6.052539e+002
7.138518e+002, 6.053853e+002
7.143339e+002, 6.046448e+002
7.148160e+002, 6.031880e+002
7.152982e+002, 6.021609e+002
7.157803e+002, 6.017600e+002
7.162624e+002, 6.013266e+002
7.167445e+002, 6.002309e+002
7.172266e+002, 5.995067e+002
7.177087e+002, 6.003486e+002
7.181909e+002, 6.022869e+002
7.186730e+002, 6.033245e+002
7.191551e+002, 6.021220e+002
7.196372e+002, 6.008002e+002
7.201193e+002, 6.010258e+002
7.206014e+002, 6.020095e+002
7.210836e+002, 6.024008e+002
7.215657e+002, 6.020054e+002
7.220478e+002, 6.013826e+002
7.225299e+002, 6.009062e+002
7.230120e+002, 6.006290e+002
7.234941e+002, 6.008620e+002
7.239763e+002, 6.020176e+002
7.244584e+002, 6.025292e+002
7.249405e+002, 6.017878e+002
7.254226e+002, 6.008543e+002
7.259047e+002, 6.002946e+002
7.263868e+002, 5.999711e+002
7.268690e+002, 5.995358e+002
7.273511e+002, 5.988361e+002
7.278332e+002, 5.982451e+002
7.283153e+002, 5.984249e+002
7.287974e+002, 5.986113e+002
7.292795e+002, 5.971631e+002
7.297617e+002, 5.944652e+002
7.302438e+002, 5.931365e+002
7.307259e+002, 5.947161e+002
7.312080e+002, 5.975948e+002
7.316901e+002, 5.983395e+002
7.321722e+002, 5.961868e+002
7.326544e+002, 5.951393e+002
7.331365e+002, 5.961759e+002
7.336186e+002, 5.969608e+002
7.341007e+002, 5.961464e+002
7.345828e+002, 5.947490e+002
7.350649e+002, 5.940849e+002
7.355471e+002, 5.943773e+002
7.360292e+002, 5.947632e+002
7.365113e+002, 5.946144e+002
7.369934e+002, 5.945550e+002
7.374755e+002, 5.957150e+002
7.379576e+002, 5.974885e+002
7.384398e+002, 5.979141e+002
7.389219e+002, 5.963323e+002
7.394040e+002, 5.942568e+002
7.398861e+002, 5.935554e+002
7.403682e+002, 5.942027e+002
7.408503e+002, 5.949598e+002
7.413325e+002, 5.961389e+002
7.418146e+002, 5.967289e+002
7.422967e+002, 5.944714e+002
7.427788e+002, 5.930378e+002
7.432609e+002, 5.966874e+002
7.437430e+002, 6.047186e+002
7.442252e+002, 6.107786e+002
7.447073e+002, 6.120975e+002
7.451894e+002, 6.117983e+002
7.456715e+002, 6.111815e+002
7.461536e+002, 6.105222e+002
7.466357e+002, 6.103762e+002
7.471179e+002, 6.107479e+002
7.476000e+002, 6.109554e+002
7.480821e+002, 6.103908e+002
7.485642e+002, 6.094523e+002
7.490463e+002, 6.099691e+002
7.495284e+002, 6.129568e+002
7.500106e+002, 6.125153e+002
7.504927e+002, 6.052131e+002
7.509748e+002, 5.979909e+002
7.514569e+002, 5.958994e+002
7.519390e+002, 5.972659e+002
7.524211e+002, 5.987631e+002
7.529033e+002, 6.001356e+002
7.533854e+002, 6.013773e+002
7.538675e+002, 6.023363e+002
7.543496e+002, 6.032683e+002
7.548317e+002, 6.046248e+002
7.553138e+002, 6.061568e+002
7.557960e+002, 6.069404e+002
7.562781e+002, 6.065515e+002
7.567602e+002, 6.061437e+002
7.572423e+002, 6.075978e+002
7.577244e+002, 6.108376e+002
7.582065e+002, 6.137966e+002
7.586887e+002, 6.165490e+002
7.591708e+002, 6.185429e+002
7.596529e+002, 6.189577e+002
7.601350e+002, 6.189724e+002
7.606171e+002, 6.202191e+002
7.610992e+002, 6.226531e+002
7.615814e+002, 6.262566e+002
7.620635e+002, 6.330912e+002
7.625456e+002, 6.387739e+002
7.630277e+002, 6.401234e+002
7.635098e+002, 6.397703e+002
7.639919e+002, 6.410414e+002
7.644741e+002, 6.445170e+002
7.649562e+002, 6.488392e+002
7.654383e+002, 6.529293e+002
7.659204e+002, 6.571503e+002
7.664025e+002, 6.623616e+002
7.668846e+002, 6.685182e+002
7.673668e+002, 6.748775e+002
7.678489e+002, 6.813168e+002
7.683310e+002, 6.877775e+002
7.688131e+002, 6.940909e+002
7.692952e+002, 7.003757e+002
7.697773e+002, 7.073883e+002
7.702595e+002, 7.158928e+002
7.707416e+002, 7.240139e+002
7.712237e+002, 7.308137e+002
7.717058e+002, 7.379404e+002
7.721879e+002, 7.471438e+002
7.726700e+002, 7.572851e+002
7.731522e+002, 7.661373e+002
7.736343e+002, 7.728467e+002
7.741164e+002, 7.781424e+002
7.745985e+002, 7.831599e+002
7.750806e+002, 7.871533e+002
7.755627e+002, 7.885502e+002
7.760449e+002, 7.872654e+002
7.765270e+002, 7.831839e+002
7.770091e+002, 7.760274e+002
7.774912e+002, 7.671220e+002
7.779733e+002, 7.585335e+002
7.784554e+002, 7.503787e+002
7.789376e+002, 7.410850e+002
7.794197e+002, 7.302414e+002
7.799019e+002, 7.187278e+002
7.803840e+002, 7.056936e+002
7.808661e+002, 6.927934e+002
7.813482e+002, 6.816281e+002
7.818303e+002, 6.720856e+002
7.823124e+002, 6.629962e+002
7.827946e+002, 6.537023e+002
7.832767e+002, 6.448017e+002
7.837588e+002, 6.365380e+002
7.842409e+002, 6.290706e+002
7.847230e+002, 6.228720e+002
7.852051e+002, 6.179001e+002
7.856873e+002, 6.133624e+002
7.861694e+002, 6.087060e+002
7.866515e+002, 6.042419e+002
7.871336e+002, 6.009915e+002
7.876157e+002, 5.993522e+002
7.880978e+002, 5.968099e+002
7.885800e+002, 5.928235e+002
7.890621e+002, 5.885858e+002
7.895442e+002, 5.841439e+002
7.900263e+002, 5.801147e+002
7.905084e+002, 5.775883e+002
7.909905e+002, 5.769235e+002
7.914727e+002, 5.762457e+002
7.919548e+002, 5.749304e+002
7.924369e+002, 5.736426e+002
7.929190e+002, 5.728364e+002
7.934011e+002, 5.723240e+002
7.938832e+002, 5.718584e+002
7.943654e+002, 5.713220e+002
7.948475e+002, 5.704888e+002
7.953296e+002, 5.689620e+002
7.958117e+002, 5.671318e+002
7.962938e+002, 5.661315e+002
7.967759e+002, 5.659389e+002
7.972581e+002, 5.658220e+002
7.977402e+002, 5.656112e+002
7.982223e+002, 5.654330e+002
7.987044e+002, 5.654932e+002
7.991865e+002, 5.656761e+002
7.996686e+002, 5.653212e+002
8.001508e+002, 5.634045e+002
8.006329e+002, 5.624335e+002
8.011150e+002, 5.637401e+002
8.015971e+002, 5.647324e+002
8.020792e+002, 5.634446e+002
8.025613e+002, 5.609402e+002
8.030435e+002, 5.593127e+002
8.035256e+002, 5.592343e+002
8.040077e+002, 5.594444e+002
8.044898e+002, 5.588953e+002
8.049719e+002, 5.581624e+002
8.054540e+002, 5.582973e+002
8.059362e+002, 5.590625e+002
8.064183e+002, 5.593539e+002
8.069004e+002, 5.587831e+002
8.073825e+002, 5.576924e+002
8.078646e+002, 5.563575e+002
8.083467e+002, 5.548477e+002
8.088289e+002, 5.541349e+002
8.093110e+002, 5.546042e+002
8.097931e+002, 5.548220e+002
8.102752e+002, 5.543625e+002
8.107573e+002, 5.536882e+002
8.112394e+002, 5.528210e+002
8.117216e+002, 5.520125e+002
8.122037e+002, 5.522311e+002
8.126858e+002, 5.545295e+002
8.131679e+002, 5.561549e+002
8.136500e+002, 5.559957e+002
8.141321e+002, 5.549324e+002
8.146143e+002, 5.533724e+002
8.150964e+002, 5.516066e+002
8.155785e+002, 5.500599e+002
8.160606e+002, 5.489061e+002
8.165427e+002, 5.479178e+002
8.170248e+002, 5.468370e+002
8.175070e+002, 5.457049e+002
8.179891e+002, 5.445954e+002
8.184712e+002, 5.435062e+002
8.189533e+002, 5.427332e+002
8.194354e+002, 5.423173e+002
8.199175e+002, 5.425970e+002
8.203997e+002, 5.444187e+002
8.208818e+002, 5.477100e+002
8.213639e+002, 5.480591e+002
8.218460e+002, 5.427027e+002
8.223281e+002, 5.384903e+002
8.228102e+002, 5.361445e+002
8.232924e+002, 5.351017e+002
8.237745e+002, 5.360567e+002
8.242566e+002, 5.379213e+002
8.247387e+002, 5.379034e+002
8.252208e+002, 5.345230e+002
8.257029e+002, 5.314871e+002
8.261851e+002, 5.316187e+002
8.266672e+002, 5.329130e+002
8.271493e+002, 5.331334e+002
8.276314e+002, 5.323700e+002
8.281135e+002, 5.315646e+002
8.285956e+002, 5.310782e+002
8.290778e+002, 5.304856e+002
8.295599e+002, 5.290701e+002
8.300420e+002, 5.270692e+002
8.305241e+002, 5.261863e+002
8.310062e+002, 5.265792e+002
8.314883e+002, 5.271127e+002
8.319705e+002, 5.275797e+002
8.324526e+002, 5.278834e+002
8.329347e+002, 5.278871e+002
8.334168e+002, 5.276202e+002
8.338989e+002, 5.273864e+002
8.343810e+002, 5.271163e+002
8.348632e+002, 5.269708e+002
8.353453e+002, 5.271193e+002
8.358274e+002, 5.272443e+002
8.363095e+002, 5.270783e+002
8.367916e+002, 5.267606e+002
8.372737e+002, 5.266901e+002
8.377559e+002, 5.270160e+002
8.382380e+002, 5.269805e+002
8.387201e+002, 5.254109e+002
8.392022e+002, 5.235676e+002
8.396843e+002, 5.234769e+002
8.401664e+002, 5.246341e+002
8.406486e+002, 5.253417e+002
8.411307e+002, 5.250714e+002
8.416128e+002, 5.240945e+002
8.420949e+002, 5.225554e+002
8.425770e+002, 5.206640e+002
8.430591e+002, 5.194312e+002
8.435413e+002, 5.189459e+002
8.440234e+002, 5.186656e+002
8.445055e+002, 5.185605e+002
8.449876e+002, 5.185408e+002
8.454697e+002, 5.185727e+002
8.459518e+002, 5.186396e+002
8.464340e+002, 5.186989e+002
8.469161e+002, 5.187755e+002
8.473982e+002, 5.187861e+002
8.478803e+002, 5.190156e+002
8.483624e+002, 5.188650e+002
8.488445e+002, 5.175086e+002
8.493267e+002, 5.158611e+002
8.498088e+002, 5.153668e+002
8.502909e+002, 5.161356e+002
8.507730e+002, 5.166826e+002
8.512551e+002, 5.160173e+002
8.517372e+002, 5.146721e+002
8.522194e+002, 5.128046e+002
8.527015e+002, 5.108437e+002
8.531836e+002, 5.098752e+002
8.536657e+002, 5.100556e+002
8.541478e+002, 5.110909e+002
8.546299e+002, 5.129590e+002
8.551121e+002, 5.147556e+002
8.555942e+002, 5.140168e+002
8.560763e+002, 5.102456e+002
8.565584e+002, 5.082152e+002
8.570405e+002, 5.086490e+002
8.575226e+002, 5.093145e+002
8.580048e+002, 5.093715e+002
8.584869e+002, 5.090507e+002
8.589690e+002, 5.085698e+002
8.594511e+002, 5.078983e+002
8.599332e+002, 5.075748e+002
8.604153e+002, 5.079419e+002
8.608975e+002, 5.082402e+002
8.613796e+002, 5.079992e+002
8.618617e+002, 5.078127e+002
8.623438e+002, 5.085217e+002
8.628259e+002, 5.097537e+002
8.633080e+002, 5.102455e+002
8.637902e+002, 5.093570e+002
8.642723e+002, 5.081305e+002
8.647544e+002, 5.071022e+002
8.652365e+002, 5.064702e+002
8.657186e+002, 5.070310e+002
8.662007e+002, 5.083449e+002
8.666829e+002, 5.085703e+002
8.671650e+002, 5.070443e+002
8.676471e+002, 5.049765e+002
8.681292e+002, 5.036875e+002
8.686113e+002, 5.031503e+002
8.690934e+002, 5.033342e+002
8.695756e+002, 5.043499e+002
8.700577e+002, 5.053177e+002
8.705398e+002, 5.061481e+002
8.710219e+002, 5.066618e+002
8.715040e+002, 5.067539e+002
8.719861e+002, 5.064094e+002
8.724683e+002, 5.055264e+002
8.729504e+002, 5.034903e+002
8.734325e+002, 5.020757e+002
8.739146e+002, 5.017423e+002
8.743967e+002, 5.015316e+002
8.748788e+002, 5.009562e+002
8.753610e+002, 5.003161e+002
8.758431e+002, 5.000533e+002
8.763252e+002, 5.002077e+002
8.768073e+002, 5.003992e+002
8.772894e+002, 5.006503e+002
8.777715e+002, 5.006617e+002
8.782537e+002, 4.998498e+002
8.787358e+002, 4.988226e+002
8.792179e+002, 4.985407e+002
8.797000e+002, 4.990237e+002
8.801821e+002, 4.997894e+002
8.806642e+002, 5.006048e+002
8.811464e+002, 5.011509e+002
8.816285e+002, 5.006635e+002
8.821106e+002, 4.994048e+002
8.825927e+002, 4.990226e+002
8.830748e+002, 4.996187e+002
8.835569e+002, 4.999221e+002
8.840391e+002, 4.994167e+002
8.845212e+002, 4.985607e+002
8.850033e+002, 4.978266e+002
8.854854e+002, 4.972275e+002
8.859675e+002, 4.969500e+002
8.864496e+002, 4.971353e+002
8.869318e+002, 4.973739e+002
8.874139e+002, 4.980070e+002
8.878960e+002, 4.982669e+002
8.883781e+002, 4.971967e+002
8.888602e+002, 4.956058e+002
8.893423e+002, 4.951295e+002
8.898245e+002, 4.961237e+002
8.903066e+002, 4.974153e+002
8.907887e+002, 4.995172e+002
8.912708e+002, 5.009384e+002
8.917529e+002, 4.999635e+002
8.922350e+002, 4.982188e+002
8.927172e+002, 4.981651e+002
8.931993e+002, 4.998829e+002
8.936814e+002, 5.012892e+002
8.941635e+002, 5.009455e+002
8.946456e+002, 5.001074e+002
8.951277e+002, 5.003789e+002
8.956099e+002, 5.012726e+002
8.960920e+002, 5.016560e+002
8.965741e+002, 5.014774e+002
8.970562e+002, 5.013312e+002
8.975383e+002, 5.015054e+002
8.980204e+002, 5.016589e+002
8.985026e+002, 5.012219e+002
8.989847e+002, 5.002597e+002
8.994668e+002, 4.996823e+002
8.999489e+002, 4.995209e+002
9.004310e+002, 4.995502e+002
9.009131e+002, 4.997542e+002
9.013953e+002, 5.000563e+002
9.018774e+002, 5.004565e+002
9.023595e+002, 5.008985e+002
9.028416e+002, 5.011125e+002
9.033237e+002, 5.012301e+002
9.038058e+002, 5.008907e+002
9.042880e+002, 4.997202e+002
9.047701e+002, 4.985607e+002
9.052522e+002, 4.976484e+002
9.057343e+002, 4.969972e+002
9.062164e+002, 4.966049e+002
9.066985e+002, 4.964720e+002
9.071807e+002, 4.966178e+002
9.076628e+002, 4.969328e+002
9.081449e+002, 4.976642e+002
9.086270e+002, 4.997710e+002
9.091091e+002, 5.017886e+002
9.095912e+002, 5.016332e+002
9.100734e+002, 4.998200e+002
9.105555e+002, 4.985039e+002
9.110376e+002, 4.986485e+002
9.115197e+002, 4.991888e+002
9.120018e+002, 4.988698e+002
9.124839e+002, 4.981935e+002
9.129661e+002, 4.983670e+002
9.134482e+002, 4.992093e+002
9.139303e+002, 4.995923e+002
9.144124e+002, 4.992286e+002
9.148945e+002, 4.990418e+002
9.153766e+002, 4.999159e+002
9.158588e+002, 5.014438e+002
9.163409e+002, 5.023209e+002
9.168230e+002, 5.024798e+002
9.173051e+002, 5.026835e+002
9.177872e+002, 5.030798e+002
9.182693e+002, 5.032138e+002
9.187515e+002, 5.027310e+002
9.192336e+002, 5.020282e+002
9.197157e+002, 5.016768e+002
9.201978e+002, 5.016725e+002
9.206799e+002, 5.020453e+002
9.211620e+002, 5.038413e+002
9.216442e+002, 5.045421e+002
9.221263e+002, 5.025183e+002
9.226084e+002, 5.005025e+002
9.230905e+002, 5.005012e+002
9.235726e+002, 5.018990e+002
9.240547e+002, 5.032177e+002
9.245369e+002, 5.043304e+002
9.250190e+002, 5.047498e+002
9.255011e+002, 5.038760e+002
9.259832e+002, 5.027047e+002
9.264653e+002, 5.014846e+002
9.269474e+002, 5.006009e+002
9.274296e+002, 5.008140e+002
9.279117e+002, 5.019789e+002
9.283938e+002, 5.028503e+002
9.288759e+002, 5.025897e+002
9.293580e+002, 5.020178e+002
9.298401e+002, 5.021903e+002
9.303223e+002, 5.026309e+002
9.308044e+002, 5.022518e+002
9.312865e+002, 5.012047e+002
9.317686e+002, 5.005423e+002
9.322507e+002, 5.006814e+002
9.327328e+002, 5.011150e+002
9.332150e+002, 5.013313e+002
9.336971e+002, 5.013213e+002
9.341792e+002, 5.010874e+002
9.346613e+002, 5.006273e+002
9.351434e+002, 4.997132e+002
9.356255e+002, 4.982599e+002
9.361077e+002, 4.966089e+002
9.365898e+002, 4.948466e+002
9.370719e+002, 4.932764e+002
9.375540e+002, 4.926336e+002
9.380361e+002, 4.931560e+002
9.385182e+002, 4.933280e+002
9.390004e+002, 4.931298e+002
9.394825e+002, 4.926034e+002
9.399646e+002, 4.914825e+002
9.404467e+002, 4.903075e+002
9.409288e+002, 4.895104e+002
9.414109e+002, 4.890692e+002
9.418931e+002, 4.889912e+002
9.423752e+002, 4.901819e+002
9.428573e+002, 4.900635e+002
9.433394e+002, 4.868834e+002
9.438215e+002, 4.839289e+002
9.443036e+002, 4.831955e+002
9.447858e+002, 4.835131e+002
9.452679e+002, 4.832016e+002
9.457500e+002, 4.821165e+002
9.462321e+002, 4.814057e+002
9.467142e+002, 4.822252e+002
9.471964e+002, 4.826862e+002
9.476785e+002, 4.811509e+002
9.481606e+002, 4.790235e+002
9.486427e+002, 4.775020e+002
9.491248e+002, 4.768502e+002
9.496069e+002, 4.776467e+002
9.500891e+002, 4.800069e+002
9.505712e+002, 4.817359e+002
9.510533e+002, 4.800807e+002
9.515354e+002, 4.769823e+002
9.520175e+002, 4.754063e+002
9.524996e+002, 4.750964e+002
9.529818e+002, 4.756768e+002
9.534639e+002, 4.768737e+002
9.539460e+002, 4.774138e+002
9.544281e+002, 4.764503e+002
9.549102e+002, 4.748203e+002
9.553923e+002, 4.738487e+002
9.558745e+002, 4.735126e+002
9.563566e+002, 4.738241e+002
9.568387e+002, 4.748242e+002
9.573208e+002, 4.755519e+002
9.578029e+002, 4.757331e+002
9.582850e+002, 4.754616e+002
9.587672e+002, 4.747306e+002
9.592493e+002, 4.737044e+002
9.597314e+002, 4.730923e+002
9.602135e+002, 4.730794e+002
9.606956e+002, 4.726910e+002
9.611777e+002, 4.713081e+002
9.616599e+002, 4.707931e+002
9.621420e+002, 4.724143e+002
9.626241e+002, 4.747955e+002
9.631062e+002, 4.764529e+002
9.635883e+002, 4.773788e+002
9.640704e+002, 4.773300e+002
9.645526e+002, 4.755099e+002
9.650347e+002, 4.739347e+002
9.655168e+002, 4.726441e+002
9.659989e+002, 4.717768e+002
9.664810e+002, 4.714819e+002
9.669631e+002, 4.716271e+002
9.674453e+002, 4.723217e+002
9.679274e+002, 4.736245e+002
9.684095e+002, 4.737958e+002
9.688916e+002, 4.712941e+002
9.693737e+002, 4.688867e+002
9.698558e+002, 4.674090e+002
9.703380e+002, 4.668924e+002
9.708201e+002, 4.680318e+002
9.713022e+002, 4.700202e+002
9.717843e+002, 4.709333e+002
9.722664e+002, 4.700830e+002
9.727485e+002, 4.690885e+002
9.732307e+002, 4.690464e+002
9.737128e+002, 4.693636e+002
9.741949e+002, 4.695108e+002
9.746770e+002, 4.695757e+002
9.751591e+002, 4.698170e+002
9.756412e+002, 4.701890e+002
9.761234e+002, 4.702714e+002
9.766055e+002, 4.697871e+002
9.770876e+002, 4.692799e+002
9.775698e+002, 4.692968e+002
9.780519e+002, 4.698109e+002
9.785340e+002, 4.711639e+002
9.790161e+002, 4.730068e+002
9.794982e+002, 4.736936e+002
9.799803e+002, 4.729068e+002
9.804625e+002, 4.723548e+002
9.809446e+002, 4.734835e+002
9.814267e+002, 4.754412e+002
9.819088e+002, 4.764278e+002
9.823909e+002, 4.765093e+002
9.828730e+002, 4.762235e+002
9.833552e+002, 4.755919e+002
9.838373e+002, 4.751840e+002
9.843194e+002, 4.752355e+002
9.848015e+002, 4.753796e+002
9.852836e+002, 4.751149e+002
9.857657e+002, 4.747121e+002
9.862479e+002, 4.758193e+002
9.867300e+002, 4.790303e+002
9.872121e+002, 4.804035e+002
9.876942e+002, 4.789263e+002
9.881763e+002, 4.776571e+002
9.886584e+002, 4.778701e+002
9.891406e+002, 4.792369e+002
9.896227e+002, 4.815474e+002
9.901048e+002, 4.848021e+002
9.905869e+002, 4.872158e+002
9.910690e+002, 4.884468e+002
9.915511e+002, 4.894806e+002
9.920333e+002, 4.900411e+002
9.925154e+002, 4.908888e+002
9.929975e+002, 4.924744e+002
9.934796e+002, 4.945740e+002
9.939617e+002, 4.968443e+002
9.944438e+002, 4.992827e+002
9.949260e+002, 5.019704e+002
9.954081e+002, 5.047524e+002
9.958902e+002, 5.080040e+002
9.963723e+002, 5.120059e+002
9.968544e+002, 5.163030e+002
9.973365e+002, 5.201353e+002
9.978187e+002, 5.241939e+002
9.983008e+002, 5.298192e+002
9.987829e+002, 5.372917e+002
9.992650e+002, 5.455630e+002
9.997471e+002, 5.540010e+002
1.000229e+003, 5.635656e+002
1.000711e+003, 5.745121e+002
1.001193e+003, 5.869859e+002
1.001676e+003, 6.006202e+002
1.002158e+003, 6.160517e+002
1.002640e+003, 6.344161e+002
1.003122e+003, 6.559811e+002
1.003604e+003, 6.813926e+002
1.004086e+003, 7.103975e+002
1.004568e+003, 7.442068e+002
1.005050e+003, 7.828575e+002
1.005533e+003, 8.275192e+002
1.006015e+003, 8.798541e+002
1.006497e+003, 9.397463e+002
1.006979e+003, 1.006551e+003
1.007461e+003, 1.080278e+003
1.007943e+003, 1.157876e+003
1.008425e+003, 1.243710e+003
1.008907e+003, 1.326096e+003
1.009389e+003, 1.396989e+003
1.009872e+003, 1.449062e+003
1.010354e+003, 1.467745e+003
1.010836e+003, 1.451519e+003
1.011318e+003, 1.404824e+003
1.011800e+003, 1.328642e+003
1.012282e+003, 1.237470e+003
1.012764e+003, 1.142345e+003
1.013246e+003, 1.048028e+003
1.013729e+003, 9.632811e+002
1.014211e+003, 8.883429e+002
1.014693e+003, 8.245025e+002
1.015175e+003, 7.716871e+002
1.015657e+003, 7.275168e+002
1.016139e+003, 6.905789e+002
1.016621e+003, 6.599129e+002
1.017103e+003, 6.348038e+002
1.017585e+003, 6.145730e+002
1.018068e+003, 5.962087e+002
1.018550e+003, 5.797565e+002
1.019032e+003, 5.659311e+002
1.019514e+003, 5.550380e+002
1.019996e+003, 5.461005e+002
1.020478e+003, 5.385259e+002
1.020960e+003, 5.319428e+002
1.021442e+003, 5.256451e+002
1.021924e+003, 5.196390e+002
1.022407e+003, 5.134305e+002
1.022889e+003, 5.069867e+002
1.023371e+003, 5.008018e+002
1.023853e+003, 4.949648e+002
1.024335e+003, 4.896489e+002
1.024817e+003, 4.849438e+002
1.025299e+003, 4.809665e+002
1.025781e+003, 4.783492e+002
1.026264e+003, 4.773549e+002
1.026746e+003, 4.752532e+002
1.027228e+003, 4.716268e+002
1.027710e+003, 4.685094e+002
1.028192e+003, 4.666043e+002
1.028674e+003, 4.654244e+002
1.029156e+003, 4.646762e+002
1.029638e+003, 4.641506e+002
1.030120e+003, 4.629004e+002
1.030603e+003, 4.606205e+002
1.031085e+003, 4.588109e+002
1.031567e+003, 4.576933e+002
1.032049e+003, 4.565693e+002
1.032531e+003, 4.551079e+002
1.033013e+003, 4.537022e+002
1.033495e+003, 4.528346e+002
1.033977e+003, 4.523540e+002
1.034459e+003, 4.514451e+002
1.034942e+003, 4.495317e+002
1.035424e+003, 4.486154e+002
1.035906e+003, 4.495594e+002
1.036388e+003, 4.500188e+002
1.036870e+003, 4.487007e+002
1.037352e+003, 4.470902e+002
1.037834e+003, 4.469178e+002
1.038316e+003, 4.478114e+002
1.038799e+003, 4.475132e+002
1.039281e+003, 4.449209e+002
1.039763e+003, 4.432841e+002
1.040245e+003, 4.430616e+002
1.040727e+003, 4.431939e+002
1.041209e+003, 4.437820e+002
1.041691e+003, 4.442264e+002
1.042173e+003, 4.437970e+002
1.042656e+003, 4.426787e+002
1.043138e+003, 4.418690e+002
1.043620e+003, 4.416820e+002
1.044102e+003, 4.412432e+002
1.044584e+003, 4.400645e+002
1.045066e+003, 4.391669e+002
1.045548e+003, 4.392847e+002
1.046030e+003, 4.395766e+002
1.046512e+003, 4.389611e+002
1.046995e+003, 4.377344e+002
1.047477e+003, 4.374313e+002
1.047959e+003, 4.389771e+002
1.048441e+003, 4.397007e+002
1.048923e+003, 4.387414e+002
1.049405e+003, 4.374673e+002
1.049887e+003, 4.358800e+002
1.050369e+003, 4.346778e+002
1.050851e+003, 4.347315e+002
1.051334e+003, 4.357990e+002
1.051816e+003, 4.368870e+002
1.052298e+003, 4.381987e+002
1.052780e+003, 4.385020e+002
1.053262e+003, 4.363076e+002
1.053744e+003, 4.345011e+002
1.054226e+003, 4.346190e+002
1.054708e+003, 4.356049e+002
1.055191e+003, 4.367177e+002
1.055673e+003, 4.376842e+002
1.056155e+003, 4.379758e+002
1.056637e+003, 4.373481e+002
1.057119e+003, 4.364868e+002
1.057601e+003, 4.349687e+002
1.058083e+003, 4.340125e+002
1.058565e+003, 4.348665e+002
1.059047e+003, 4.360780e+002
1.059530e+003, 4.359721e+002
1.060012e+003, 4.349167e+002
1.060494e+003, 4.345246e+002
1.060976e+003, 4.353894e+002
1.061458e+003, 4.359308e+002
1.061940e+003, 4.352806e+002
1.062422e+003, 4.345429e+002
1.062904e+003, 4.339681e+002
1.063386e+003, 4.338550e+002
1.063869e+003, 4.351416e+002
1.064351e+003, 4.370286e+002
1.064833e+003, 4.371750e+002
1.065315e+003, 4.347171e+002
1.065797e+003, 4.327315e+002
1.066279e+003, 4.325629e+002
1.066761e+003, 4.330771e+002
1.067243e+003, 4.342931e+002
1.067726e+003, 4.354035e+002
1.068208e+003, 4.356006e+002
1.068690e+003, 4.350640e+002
1.069172e+003, 4.341579e+002
1.069654e+003, 4.329138e+002
1.070136e+003, 4.325003e+002
1.070618e+003, 4.341845e+002
1.071100e+003, 4.358839e+002
1.071583e+003, 4.361279e+002
1.072065e+003, 4.361890e+002
1.072547e+003, 4.375417e+002
1.073029e+003, 4.396061e+002
1.073511e+003, 4.409440e+002
1.073993e+003, 4.412281e+002
1.074475e+003, 4.414597e+002
1.074957e+003, 4.419849e+002
1.075439e+003, 4.426732e+002
1.075922e+003, 4.433097e+002
1.076404e+003, 4.442143e+002
1.076886e+003, 4.463268e+002
1.077368e+003, 4.486621e+002
1.077850e+003, 4.490049e+002
1.078332e+003, 4.471560e+002
1.078814e+003, 4.461680e+002
1.079296e+003, 4.484864e+002
1.079779e+003, 4.503717e+002
1.080261e+003, 4.495651e+002
1.080743e+003, 4.480610e+002
1.081225e+003, 4.472046e+002
1.081707e+003, 4.469258e+002
1.082189e+003, 4.471215e+002
1.082671e+003, 4.476369e+002
1.083153e+003, 4.476415e+002
1.083635e+003, 4.461915e+002
1.084118e+003, 4.453566e+002
1.084600e+003, 4.472968e+002
1.085082e+003, 4.489231e+002
1.085564e+003, 4.472540e+002
1.086046e+003, 4.442923e+002
1.086528e+003, 4.431377e+002
1.087010e+003, 4.437332e+002
1.087492e+003, 4.435244e+002
1.087974e+003, 4.413500e+002
1.088457e+003, 4.391656e+002
1.088939e+003, 4.372233e+002
1.089421e+003, 4.361498e+002
1.089903e+003, 4.372906e+002
1.090385e+003, 4.388291e+002
1.090867e+003, 4.383389e+002
1.091349e+003, 4.362585e+002
1.091831e+003, 4.350407e+002
1.092314e+003, 4.356265e+002
1.092796e+003, 4.358831e+002
1.093278e+003, 4.346810e+002
1.093760e+003, 4.333740e+002
1.094242e+003, 4.322965e+002
1.094724e+003, 4.317355e+002
1.095206e+003, 4.321180e+002
1.095688e+003, 4.331826e+002
1.096171e+003, 4.343902e+002
1.096653e+003, 4.357257e+002
1.097135e+003, 4.364188e+002
1.097617e+003, 4.356554e+002
1.098099e+003, 4.349792e+002
1.098581e+003, 4.352820e+002
1.099063e+003, 4.356406e+002
1.099545e+003, 4.352652e+002
1.100027e+003, 4.344186e+002
1.100510e+003, 4.335871e+002
1.100992e+003, 4.328346e+002
1.101474e+003, 4.324399e+002
1.101956e+003, 4.327658e+002
1.102438e+003, 4.330382e+002
1.102920e+003, 4.328011e+002
1.103402e+003, 4.327318e+002
1.103884e+003, 4.333306e+002
1.104366e+003, 4.343144e+002
1.104849e+003, 4.355868e+002
1.105331e+003, 4.370183e+002
1.105813e+003, 4.373070e+002
1.106295e+003, 4.346962e+002
1.106777e+003, 4.333998e+002
1.107259e+003, 4.354911e+002
1.107741e+003, 4.371976e+002
1.108223e+003, 4.361968e+002
1.108706e+003, 4.344243e+002
1.109188e+003, 4.340402e+002
1.109670e+003, 4.348202e+002
1.110152e+003, 4.352680e+002
1.110634e+003, 4.353794e+002
1.111116e+003, 4.349642e+002
1.111598e+003, 4.333666e+002
1.112080e+003, 4.320991e+002
1.112563e+003, 4.317313e+002
1.113045e+003, 4.317430e+002
1.113527e+003, 4.318085e+002
1.114009e+003, 4.319257e+002
1.114491e+003, 4.321082e+002
1.114973e+003, 4.324219e+002
1.115455e+003, 4.325420e+002
1.115937e+003, 4.325174e+002
1.116419e+003, 4.321952e+002
1.116901e+003, 4.311280e+002
1.117384e+003, 4.303533e+002
1.117866e+003, 4.305975e+002
1.118348e+003, 4.314142e+002
1.118830e+003, 4.320139e+002
1.119312e+003, 4.323719e+002
1.119794e+003, 4.333445e+002
1.120276e+003, 4.354933e+002
1.120758e+003, 4.367164e+002
1.121241e+003, 4.365069e+002
1.121723e+003, 4.359742e+002
1.122205e+003, 4.354472e+002
1.122687e+003, 4.351300e+002
1.123169e+003, 4.353300e+002
1.123651e+003, 4.359424e+002
1.124133e+003, 4.363060e+002
1.124615e+003, 4.362962e+002
1.125098e+003, 4.367083e+002
1.125580e+003, 4.376600e+002
1.126062e+003, 4.387769e+002
1.126544e+003, 4.400844e+002
1.127026e+003, 4.410381e+002
1.127508e+003, 4.411912e+002
1.127990e+003, 4.406573e+002
1.128472e+003, 4.394642e+002
1.128954e+003, 4.375650e+002
1.129437e+003, 4.370244e+002
1.129919e+003, 4.379218e+002
1.130401e+003, 4.389263e+002
1.130883e+003, 4.397733e+002
1.131365e+003, 4.406534e+002
1.131847e+003, 4.417232e+002
1.132329e+003, 4.425741e+002
1.132811e+003, 4.425031e+002
1.133293e+003, 4.417159e+002
1.133776e+003, 4.412452e+002
1.134258e+003, 4.410277e+002
1.134740e+003, 4.404467e+002
1.135222e+003, 4.394675e+002
1.135704e+003, 4.386226e+002
1.136186e+003, 4.381332e+002
1.136668e+003, 4.379939e+002
1.137150e+003, 4.383385e+002
1.137633e+003, 4.386901e+002
1.138115e+003, 4.378842e+002
1.138597e+003, 4.363282e+002
1.139079e+003, 4.353741e+002
1.139561e+003, 4.348834e+002
1.140043e+003, 4.337444e+002
1.140525e+003, 4.318281e+002
1.141007e+003, 4.303380e+002
1.141490e+003, 4.300888e+002
1.141972e+003, 4.302494e+002
1.142454e+003, 4.298001e+002
1.142936e+003, 4.291221e+002
1.143418e+003, 4.288655e+002
1.143900e+003, 4.288553e+002
1.144382e+003, 4.288036e+002
1.144864e+003, 4.285984e+002
1.145346e+003, 4.279744e+002
1.145828e+003, 4.268509e+002
1.146311e+003, 4.259396e+002
1.146793e+003, 4.259604e+002
1.147275e+003, 4.262430e+002
1.147757e+003, 4.259060e+002
1.148239e+003, 4.256948e+002
1.148721e+003, 4.269398e+002
1.149203e+003, 4.288404e+002
1.149685e+003, 4.297318e+002
1.150168e+003, 4.293450e+002
1.150650e+003, 4.285668e+002
1.151132e+003, 4.272928e+002
1.151614e+003, 4.268467e+002
1.152096e+003, 4.289555e+002
1.152578e+003, 4.309556e+002
1.153060e+003, 4.303687e+002
1.153542e+003, 4.291266e+002
1.154025e+003, 4.297459e+002
1.154507e+003, 4.318473e+002
1.154989e+003, 4.334481e+002
1.155471e+003, 4.341414e+002
1.155953e+003, 4.343783e+002
1.156435e+003, 4.336121e+002
1.156917e+003, 4.333146e+002
1.157399e+003, 4.340844e+002
1.157881e+003, 4.353516e+002
1.158364e+003, 4.373108e+002
1.158846e+003, 4.392253e+002
1.159328e+003, 4.397072e+002
1.159810e+003, 4.386766e+002
1.160292e+003, 4.381171e+002
1.160774e+003, 4.378417e+002
1.161256e+003, 4.384423e+002
1.161738e+003, 4.405287e+002
1.162220e+003, 4.425662e+002
1.162703e+003, 4.441328e+002
1.163185e+003, 4.452361e+002
1.163667e+003, 4.457853e+002
1.164149e+003, 4.459362e+002
1.164631e+003, 4.461695e+002
1.165113e+003, 4.464359e+002
1.165595e+003, 4.471803e+002
1.166077e+003, 4.486058e+002
1.166560e+003, 4.496421e+002
1.167042e+003, 4.500766e+002
1.167524e+003, 4.499483e+002
1.168006e+003, 4.491310e+002
1.168488e+003, 4.483425e+002
1.168970e+003, 4.487077e+002
1.169452e+003, 4.500107e+002
1.169934e+003, 4.513229e+002
1.170417e+003, 4.526038e+002
1.170899e+003, 4.533049e+002
1.171381e+003, 4.533668e+002
1.171863e+003, 4.526115e+002
1.172345e+003, 4.510196e+002
1.172827e+003, 4.496217e+002
1.173309e+003, 4.493250e+002
1.173791e+003, 4.493928e+002
1.174273e+003, 4.485648e+002
1.174755e+003, 4.471810e+002
1.175238e+003, 4.458734e+002
1.175720e+003, 4.447446e+002
1.176202e+003, 4.442484e+002
1.176684e+003, 4.442081e+002
1.177166e+003, 4.435535e+002
1.177648e+003, 4.418257e+002
1.178130e+003, 4.399579e+002
1.178612e+003, 4.387230e+002
1.179095e+003, 4.377339e+002
1.179577e+003, 4.364312e+002
1.180059e+003, 4.352747e+002
1.180541e+003, 4.349048e+002
1.181023e+003, 4.350957e+002
1.181505e+003, 4.352780e+002
1.181987e+003, 4.354065e+002
1.182469e+003, 4.360673e+002
1.182952e+003, 4.380458e+002
1.183434e+003, 4.389824e+002
1.183916e+003, 4.365193e+002
1.184398e+003, 4.342999e+002
1.184880e+003, 4.348567e+002
1.185362e+003, 4.361682e+002
1.185844e+003, 4.359653e+002
1.186326e+003, 4.349481e+002
1.186808e+003, 4.354010e+002
1.187291e+003, 4.378587e+002
1.187773e+003, 4.389434e+002
1.188255e+003, 4.368400e+002
1.188737e+003, 4.356990e+002
1.189219e+003, 4.367160e+002
1.189701e+003, 4.377007e+002
1.190183e+003, 4.376177e+002
1.190665e+003, 4.372153e+002
1.191147e+003, 4.373613e+002
1.191630e+003, 4.378524e+002
1.192112e+003, 4.377999e+002
1.192594e+003, 4.371133e+002
1.193076e+003, 4.362349e+002
1.193558e+003, 4.349811e+002
1.194040e+003, 4.345453e+002
1.194522e+003, 4.352839e+002
1.195004e+003, 4.364098e+002
1.195487e+003, 4.375234e+002
1.195969e+003, 4.383849e+002
1.196451e+003, 4.385226e+002
1.196933e+003, 4.382752e+002
1.197415e+003, 4.391694e+002
1.197897e+003, 4.409141e+002
1.198379e+003, 4.417085e+002
1.198861e+003, 4.415771e+002
1.199344e+003, 4.415898e+002
1.199826e+003, 4.420841e+002
1.200308e+003, 4.430258e+002
1.200790e+003, 4.444974e+002
1.201272e+003, 4.457402e+002
1.201754e+003, 4.452889e+002
1.202236e+003, 4.445014e+002
1.202718e+003, 4.457881e+002
1.203200e+003, 4.478602e+002
1.203682e+003, 4.483477e+002
1.204165e+003, 4.475078e+002
1.204647e+003, 4.467582e+002
1.205129e+003, 4.465498e+002
1.205611e+003, 4.469622e+002
1.206093e+003, 4.487284e+002
1.206575e+003, 4.499754e+002
1.207057e+003, 4.490399e+002
1.207539e+003, 4.480316e+002
1.208022e+003, 4.486408e+002
1.208504e+003, 4.498165e+002
1.208986e+003, 4.503576e+002
1.209468e+003, 4.502588e+002
1.209950e+003, 4.498851e+002
1.210432e+003, 4.492380e+002
1.210914e+003, 4.484803e+002
1.211396e+003, 4.478151e+002
1.211879e+003, 4.467126e+002
1.212361e+003, 4.447369e+002
1.212843e+003, 4.428537e+002
1.213325e+003, 4.413910e+002
1.213807e+003, 4.405181e+002
1.214289e+003, 4.406154e+002
1.214771e+003, 4.413878e+002
1.215253e+003, 4.413841e+002
1.215735e+003, 4.405298e+002
1.216218e+003, 4.393214e+002
1.216700e+003, 4.376499e+002
1.217182e+003, 4.375766e+002
1.217664e+003, 4.396613e+002
1.218146e+003, 4.412894e+002
1.218628e+003, 4.409117e+002
1.219110e+003, 4.394239e+002
1.219592e+003, 4.377145e+002
1.220074e+003, 4.360941e+002
1.220557e+003, 4.353802e+002
1.221039e+003, 4.353416e+002
1.221521e+003, 4.354838e+002
1.222003e+003, 4.357028e+002
1.222485e+003, 4.359772e+002
1.222967e+003, 4.362228e+002
1.223449e+003, 4.360438e+002
1.223931e+003, 4.351686e+002
1.224414e+003, 4.342043e+002
1.224896e+003, 4.333146e+002
1.225378e+003, 4.328837e+002
1.225860e+003, 4.338912e+002
1.226342e+003, 4.349522e+002
1.226824e+003, 4.343473e+002
1.227306e+003, 4.327638e+002
1.227788e+003, 4.316682e+002
1.228271e+003, 4.312739e+002
1.228753e+003, 4.312006e+002
1.229235e+003, 4.314082e+002
1.229717e+003, 4.318764e+002
1.230199e+003, 4.336447e+002
1.230681e+003, 4.342197e+002
1.231163e+003, 4.317459e+002
1.231645e+003, 4.292050e+002
1.232127e+003, 4.287980e+002
1.232609e+003, 4.297773e+002
1.233092e+003, 4.308801e+002
1.233574e+003, 4.320788e+002
1.234056e+003, 4.320948e+002
1.234538e+003, 4.307507e+002
1.235020e+003, 4.295782e+002
1.235502e+003, 4.287025e+002
1.235984e+003, 4.282224e+002
1.236466e+003, 4.281825e+002
1.236949e+003, 4.283950e+002
1.237431e+003, 4.288308e+002
1.237913e+003, 4.286952e+002
1.238395e+003, 4.257430e+002
1.238877e+003, 4.217460e+002
1.239359e+003, 4.214613e+002
1.239841e+003, 4.233847e+002
1.240323e+003, 4.240081e+002
1.240806e+003, 4.232422e+002
1.241288e+003, 4.224008e+002
1.241770e+003, 4.218725e+002
1.242252e+003, 4.212161e+002
1.242734e+003, 4.200021e+002
1.243216e+003, 4.190924e+002
1.243698e+003, 4.193564e+002
1.244180e+003, 4.197595e+002
1.244662e+003, 4.195103e+002
1.245145e+003, 4.190971e+002
1.245627e+003, 4.193275e+002
1.246109e+003, 4.197259e+002
1.246591e+003, 4.189234e+002
1.247073e+003, 4.166894e+002
1.247555e+003, 4.154203e+002
1.248037e+003, 4.160680e+002
1.248519e+003, 4.160781e+002
1.249001e+003, 4.147687e+002
1.249484e+003, 4.140470e+002
1.249966e+003, 4.147642e+002
1.250448e+003, 4.157196e+002
1.250930e+003, 4.160429e+002
1.251412e+003, 4.158150e+002
1.251894e+003, 4.150163e+002
1.252376e+003, 4.138250e+002
1.252858e+003, 4.136105e+002
1.253341e+003, 4.143166e+002
1.253823e+003, 4.157336e+002
1.254305e+003, 4.176529e+002
1.254787e+003, 4.189438e+002
1.255269e+003, 4.192646e+002
1.255751e+003, 4.189521e+002
1.256233e+003, 4.181810e+002
1.256715e+003, 4.172160e+002
1.257198e+003, 4.159699e+002
1.257680e+003, 4.150539e+002
1.258162e+003, 4.154627e+002
1.258644e+003, 4.163839e+002
1.259126e+003, 4.169584e+002
1.259608e+003, 4.171128e+002
1.260090e+003, 4.168006e+002
1.260572e+003, 4.161117e+002
1.261054e+003, 4.157435e+002
1.261536e+003, 4.159510e+002
1.262019e+003, 4.163207e+002
1.262501e+003, 4.171202e+002
1.262983e+003, 4.175601e+002
1.263465e+003, 4.169707e+002
1.263947e+003, 4.164859e+002
1.264429e+003, 4.168343e+002
1.264911e+003, 4.176754e+002
1.265393e+003, 4.186440e+002
1.265876e+003, 4.196092e+002
1.266358e+003, 4.196475e+002
1.266840e+003, 4.187160e+002
1.267322e+003, 4.173546e+002
1.267804e+003, 4.156083e+002
1.268286e+003, 4.153142e+002
1.268768e+003, 4.168140e+002
1.269250e+003, 4.181344e+002
1.269733e+003, 4.181886e+002
1.270215e+003, 4.175472e+002
1.270697e+003, 4.163213e+002
1.271179e+003, 4.154854e+002
1.271661e+003, 4.172275e+002
1.272143e+003, 4.196289e+002
1.272625e+003, 4.196273e+002
1.273107e+003, 4.183395e+002
1.273589e+003, 4.181803e+002
1.274072e+003, 4.191310e+002
1.274554e+003, 4.195513e+002
1.275036e+003, 4.189118e+002
1.275518e+003, 4.183036e+002
1.276000e+003, 4.180769e+002
1.276482e+003, 4.178763e+002
1.276964e+003, 4.173820e+002
1.277446e+003, 4.172801e+002
1.277929e+003, 4.180358e+002
1.278411e+003, 4.189691e+002
1.278893e+003, 4.195633e+002
1.279375e+003, 4.197461e+002
1.279857e+003, 4.191157e+002
1.280339e+003, 4.176499e+002
1.280821e+003, 4.175794e+002
1.281303e+003, 4.189871e+002
1.281786e+003, 4.200232e+002
1.282268e+003, 4.204254e+002
##END=



