##NAMES=Tundrite-(Ce)
##RRUFFID=R130564
##IDEAL CHEMISTRY=Na_2_Ce^3+^_2_Ti^4+^O_2_SiO_4_(CO_3_)_2_
##LOCALITY=Ilimaussaq complex, Narsaq, Kitaa, Greenland
##OWNER=RRUFF
##SOURCE=Rock Currier
##DESCRIPTION=Aggregates of acicular or bladed yellow crystals associated with albite and aegirine
##STATUS=The identification of this mineral has been confirmed only by single crystal X-ray diffraction.
##URL=rruff.info/R130564
8.813672e+001, 4.217729e+002
8.861884e+001, 4.240343e+002
8.910095e+001, 4.281486e+002
8.958307e+001, 4.368236e+002
9.006519e+001, 4.485321e+002
9.054730e+001, 4.603575e+002
9.102942e+001, 4.729268e+002
9.151154e+001, 4.844748e+002
9.199365e+001, 4.926332e+002
9.247577e+001, 4.979897e+002
9.295789e+001, 5.029287e+002
9.344000e+001, 5.091143e+002
9.392212e+001, 5.157422e+002
9.440424e+001, 5.218433e+002
9.488635e+001, 5.276705e+002
9.536847e+001, 5.338166e+002
9.585059e+001, 5.412025e+002
9.633270e+001, 5.498239e+002
9.681482e+001, 5.591860e+002
9.729694e+001, 5.685409e+002
9.777905e+001, 5.779290e+002
9.826117e+001, 5.884542e+002
9.874329e+001, 6.006365e+002
9.922540e+001, 6.141461e+002
9.970752e+001, 6.271068e+002
1.001896e+002, 6.391201e+002
1.006718e+002, 6.510277e+002
1.011539e+002, 6.636286e+002
1.016360e+002, 6.769577e+002
1.021181e+002, 6.910720e+002
1.026002e+002, 7.057174e+002
1.030823e+002, 7.206726e+002
1.035645e+002, 7.374032e+002
1.040466e+002, 7.564893e+002
1.045287e+002, 7.770438e+002
1.050108e+002, 7.981402e+002
1.054929e+002, 8.207570e+002
1.059750e+002, 8.424300e+002
1.064572e+002, 8.622730e+002
1.069393e+002, 8.811357e+002
1.074214e+002, 8.969715e+002
1.079035e+002, 9.094951e+002
1.083856e+002, 9.191948e+002
1.088677e+002, 9.271215e+002
1.093499e+002, 9.328459e+002
1.098320e+002, 9.373359e+002
1.103141e+002, 9.410144e+002
1.107962e+002, 9.443738e+002
1.112783e+002, 9.465305e+002
1.117604e+002, 9.472916e+002
1.122426e+002, 9.467636e+002
1.127247e+002, 9.455248e+002
1.132068e+002, 9.427645e+002
1.136889e+002, 9.397857e+002
1.141710e+002, 9.375081e+002
1.146531e+002, 9.374954e+002
1.151353e+002, 9.368720e+002
1.156174e+002, 9.341111e+002
1.160995e+002, 9.292058e+002
1.165816e+002, 9.252178e+002
1.170637e+002, 9.240309e+002
1.175458e+002, 9.240854e+002
1.180280e+002, 9.236774e+002
1.185101e+002, 9.214767e+002
1.189922e+002, 9.190646e+002
1.194743e+002, 9.171365e+002
1.199564e+002, 9.156561e+002
1.204385e+002, 9.151695e+002
1.209207e+002, 9.159789e+002
1.214028e+002, 9.180114e+002
1.218849e+002, 9.211261e+002
1.223670e+002, 9.274668e+002
1.228491e+002, 9.339016e+002
1.233312e+002, 9.365965e+002
1.238134e+002, 9.343997e+002
1.242955e+002, 9.312258e+002
1.247776e+002, 9.306640e+002
1.252597e+002, 9.321989e+002
1.257418e+002, 9.340836e+002
1.262239e+002, 9.350794e+002
1.267061e+002, 9.357363e+002
1.271882e+002, 9.370849e+002
1.276703e+002, 9.393953e+002
1.281524e+002, 9.422635e+002
1.286345e+002, 9.452441e+002
1.291166e+002, 9.483218e+002
1.295988e+002, 9.513925e+002
1.300809e+002, 9.546215e+002
1.305630e+002, 9.578367e+002
1.310451e+002, 9.602205e+002
1.315272e+002, 9.611301e+002
1.320093e+002, 9.614297e+002
1.324915e+002, 9.633344e+002
1.329736e+002, 9.669529e+002
1.334557e+002, 9.709943e+002
1.339378e+002, 9.739766e+002
1.344199e+002, 9.759187e+002
1.349020e+002, 9.787103e+002
1.353842e+002, 9.831404e+002
1.358663e+002, 9.887250e+002
1.363484e+002, 9.932479e+002
1.368305e+002, 9.963202e+002
1.373126e+002, 9.992977e+002
1.377947e+002, 1.003990e+003
1.382769e+002, 1.010930e+003
1.387590e+002, 1.016914e+003
1.392411e+002, 1.021222e+003
1.397232e+002, 1.023881e+003
1.402053e+002, 1.024122e+003
1.406874e+002, 1.021006e+003
1.411696e+002, 1.016745e+003
1.416517e+002, 1.014422e+003
1.421338e+002, 1.014827e+003
1.426159e+002, 1.015494e+003
1.430980e+002, 1.015851e+003
1.435801e+002, 1.015975e+003
1.440623e+002, 1.015577e+003
1.445444e+002, 1.014418e+003
1.450265e+002, 1.012949e+003
1.455086e+002, 1.011898e+003
1.459907e+002, 1.011145e+003
1.464728e+002, 1.011043e+003
1.469550e+002, 1.011946e+003
1.474371e+002, 1.014943e+003
1.479192e+002, 1.016449e+003
1.484013e+002, 1.015472e+003
1.488834e+002, 1.013116e+003
1.493655e+002, 1.011784e+003
1.498477e+002, 1.011950e+003
1.503298e+002, 1.012738e+003
1.508119e+002, 1.013958e+003
1.512940e+002, 1.017313e+003
1.517761e+002, 1.018585e+003
1.522583e+002, 1.016314e+003
1.527404e+002, 1.011683e+003
1.532225e+002, 1.008017e+003
1.537046e+002, 1.007191e+003
1.541867e+002, 1.006250e+003
1.546688e+002, 1.003859e+003
1.551510e+002, 9.993319e+002
1.556331e+002, 9.939644e+002
1.561152e+002, 9.876590e+002
1.565973e+002, 9.805904e+002
1.570794e+002, 9.735634e+002
1.575615e+002, 9.670338e+002
1.580437e+002, 9.603671e+002
1.585258e+002, 9.531553e+002
1.590079e+002, 9.450908e+002
1.594900e+002, 9.367071e+002
1.599721e+002, 9.277945e+002
1.604542e+002, 9.185162e+002
1.609364e+002, 9.098156e+002
1.614185e+002, 9.027945e+002
1.619006e+002, 8.961252e+002
1.623827e+002, 8.887391e+002
1.628648e+002, 8.793259e+002
1.633469e+002, 8.700045e+002
1.638291e+002, 8.619285e+002
1.643112e+002, 8.550330e+002
1.647933e+002, 8.478753e+002
1.652754e+002, 8.393273e+002
1.657575e+002, 8.303116e+002
1.662396e+002, 8.217978e+002
1.667218e+002, 8.142458e+002
1.672039e+002, 8.072128e+002
1.676860e+002, 8.003932e+002
1.681681e+002, 7.938475e+002
1.686502e+002, 7.876581e+002
1.691323e+002, 7.819897e+002
1.696145e+002, 7.767552e+002
1.700966e+002, 7.718723e+002
1.705787e+002, 7.674983e+002
1.710608e+002, 7.633503e+002
1.715429e+002, 7.592471e+002
1.720250e+002, 7.551552e+002
1.725072e+002, 7.510222e+002
1.729893e+002, 7.464772e+002
1.734714e+002, 7.418017e+002
1.739535e+002, 7.375135e+002
1.744356e+002, 7.336920e+002
1.749177e+002, 7.304551e+002
1.753999e+002, 7.280964e+002
1.758820e+002, 7.266815e+002
1.763641e+002, 7.254022e+002
1.768462e+002, 7.234669e+002
1.773283e+002, 7.210357e+002
1.778104e+002, 7.185201e+002
1.782926e+002, 7.159209e+002
1.787747e+002, 7.134177e+002
1.792568e+002, 7.113186e+002
1.797389e+002, 7.096572e+002
1.802210e+002, 7.083329e+002
1.807031e+002, 7.076243e+002
1.811853e+002, 7.072988e+002
1.816674e+002, 7.065303e+002
1.821495e+002, 7.044680e+002
1.826316e+002, 7.016857e+002
1.831137e+002, 6.996042e+002
1.835958e+002, 6.983379e+002
1.840780e+002, 6.975832e+002
1.845601e+002, 6.971105e+002
1.850422e+002, 6.968893e+002
1.855243e+002, 6.965912e+002
1.860064e+002, 6.960577e+002
1.864885e+002, 6.953264e+002
1.869707e+002, 6.945621e+002
1.874528e+002, 6.938151e+002
1.879349e+002, 6.929247e+002
1.884170e+002, 6.913550e+002
1.888991e+002, 6.891664e+002
1.893812e+002, 6.874213e+002
1.898634e+002, 6.871290e+002
1.903455e+002, 6.879650e+002
1.908276e+002, 6.877627e+002
1.913097e+002, 6.861351e+002
1.917918e+002, 6.839342e+002
1.922739e+002, 6.825033e+002
1.927561e+002, 6.818275e+002
1.932382e+002, 6.817597e+002
1.937203e+002, 6.826830e+002
1.942024e+002, 6.844539e+002
1.946845e+002, 6.851165e+002
1.951666e+002, 6.843503e+002
1.956488e+002, 6.826947e+002
1.961309e+002, 6.811047e+002
1.966130e+002, 6.795604e+002
1.970951e+002, 6.781072e+002
1.975772e+002, 6.766246e+002
1.980593e+002, 6.751084e+002
1.985415e+002, 6.742973e+002
1.990236e+002, 6.744914e+002
1.995057e+002, 6.751202e+002
1.999878e+002, 6.748419e+002
2.004699e+002, 6.735299e+002
2.009520e+002, 6.719403e+002
2.014342e+002, 6.705368e+002
2.019163e+002, 6.693451e+002
2.023984e+002, 6.678941e+002
2.028805e+002, 6.660293e+002
2.033626e+002, 6.639944e+002
2.038447e+002, 6.623977e+002
2.043269e+002, 6.612831e+002
2.048090e+002, 6.604380e+002
2.052911e+002, 6.597646e+002
2.057732e+002, 6.592577e+002
2.062553e+002, 6.589576e+002
2.067374e+002, 6.589626e+002
2.072196e+002, 6.591165e+002
2.077017e+002, 6.589628e+002
2.081838e+002, 6.584203e+002
2.086659e+002, 6.577994e+002
2.091480e+002, 6.572006e+002
2.096301e+002, 6.565370e+002
2.101123e+002, 6.563531e+002
2.105944e+002, 6.569092e+002
2.110765e+002, 6.578478e+002
2.115586e+002, 6.580661e+002
2.120407e+002, 6.572919e+002
2.125228e+002, 6.564127e+002
2.130050e+002, 6.559757e+002
2.134871e+002, 6.561625e+002
2.139692e+002, 6.561183e+002
2.144513e+002, 6.557869e+002
2.149334e+002, 6.551927e+002
2.154155e+002, 6.543776e+002
2.158977e+002, 6.532651e+002
2.163798e+002, 6.520551e+002
2.168619e+002, 6.506031e+002
2.173440e+002, 6.483036e+002
2.178261e+002, 6.478039e+002
2.183082e+002, 6.500457e+002
2.187904e+002, 6.539090e+002
2.192725e+002, 6.558348e+002
2.197546e+002, 6.549342e+002
2.202367e+002, 6.536525e+002
2.207188e+002, 6.532198e+002
2.212009e+002, 6.538616e+002
2.216831e+002, 6.547889e+002
2.221652e+002, 6.561055e+002
2.226473e+002, 6.576758e+002
2.231294e+002, 6.590052e+002
2.236115e+002, 6.598898e+002
2.240936e+002, 6.609213e+002
2.245758e+002, 6.624191e+002
2.250579e+002, 6.645262e+002
2.255400e+002, 6.667430e+002
2.260221e+002, 6.689617e+002
2.265042e+002, 6.713287e+002
2.269863e+002, 6.741848e+002
2.274685e+002, 6.777133e+002
2.279506e+002, 6.815010e+002
2.284327e+002, 6.854283e+002
2.289148e+002, 6.898220e+002
2.293969e+002, 6.936322e+002
2.298790e+002, 6.965480e+002
2.303612e+002, 6.989548e+002
2.308433e+002, 7.017795e+002
2.313254e+002, 7.049565e+002
2.318075e+002, 7.086837e+002
2.322896e+002, 7.131454e+002
2.327717e+002, 7.187409e+002
2.332539e+002, 7.240497e+002
2.337360e+002, 7.288978e+002
2.342181e+002, 7.334166e+002
2.347002e+002, 7.379326e+002
2.351823e+002, 7.423749e+002
2.356644e+002, 7.468493e+002
2.361466e+002, 7.513505e+002
2.366287e+002, 7.557138e+002
2.371108e+002, 7.605569e+002
2.375929e+002, 7.661219e+002
2.380750e+002, 7.719943e+002
2.385571e+002, 7.772836e+002
2.390393e+002, 7.818835e+002
2.395214e+002, 7.860771e+002
2.400035e+002, 7.899173e+002
2.404856e+002, 7.933549e+002
2.409677e+002, 7.967383e+002
2.414498e+002, 8.000927e+002
2.419320e+002, 8.033981e+002
2.424141e+002, 8.066418e+002
2.428962e+002, 8.096627e+002
2.433783e+002, 8.129274e+002
2.438604e+002, 8.166890e+002
2.443425e+002, 8.211928e+002
2.448247e+002, 8.253353e+002
2.453068e+002, 8.290442e+002
2.457889e+002, 8.324442e+002
2.462710e+002, 8.358123e+002
2.467531e+002, 8.392882e+002
2.472352e+002, 8.424583e+002
2.477174e+002, 8.448962e+002
2.481995e+002, 8.460992e+002
2.486816e+002, 8.490368e+002
2.491637e+002, 8.544769e+002
2.496458e+002, 8.610756e+002
2.501279e+002, 8.669349e+002
2.506101e+002, 8.720505e+002
2.510922e+002, 8.764905e+002
2.515743e+002, 8.800222e+002
2.520564e+002, 8.824725e+002
2.525385e+002, 8.854407e+002
2.530206e+002, 8.889471e+002
2.535028e+002, 8.929871e+002
2.539849e+002, 8.975574e+002
2.544670e+002, 9.031232e+002
2.549491e+002, 9.083461e+002
2.554312e+002, 9.127980e+002
2.559133e+002, 9.163802e+002
2.563955e+002, 9.204172e+002
2.568776e+002, 9.252941e+002
2.573597e+002, 9.302137e+002
2.578418e+002, 9.342524e+002
2.583239e+002, 9.370061e+002
2.588061e+002, 9.399018e+002
2.592882e+002, 9.432686e+002
2.597703e+002, 9.471122e+002
2.602524e+002, 9.509873e+002
2.607345e+002, 9.551837e+002
2.612166e+002, 9.590538e+002
2.616988e+002, 9.620438e+002
2.621809e+002, 9.639152e+002
2.626630e+002, 9.654541e+002
2.631451e+002, 9.667991e+002
2.636272e+002, 9.679381e+002
2.641093e+002, 9.685660e+002
2.645915e+002, 9.685250e+002
2.650736e+002, 9.682844e+002
2.655557e+002, 9.684821e+002
2.660378e+002, 9.696761e+002
2.665199e+002, 9.693084e+002
2.670020e+002, 9.667719e+002
2.674842e+002, 9.623943e+002
2.679663e+002, 9.578063e+002
2.684484e+002, 9.528417e+002
2.689305e+002, 9.480568e+002
2.694126e+002, 9.440188e+002
2.698947e+002, 9.409083e+002
2.703769e+002, 9.374308e+002
2.708590e+002, 9.332310e+002
2.713411e+002, 9.286467e+002
2.718232e+002, 9.249287e+002
2.723053e+002, 9.222123e+002
2.727874e+002, 9.199464e+002
2.732696e+002, 9.178103e+002
2.737517e+002, 9.157961e+002
2.742338e+002, 9.140180e+002
2.747159e+002, 9.125784e+002
2.751980e+002, 9.112706e+002
2.756801e+002, 9.092964e+002
2.761623e+002, 9.062792e+002
2.766444e+002, 9.043123e+002
2.771265e+002, 9.047797e+002
2.776086e+002, 9.078863e+002
2.780907e+002, 9.108790e+002
2.785728e+002, 9.136386e+002
2.790550e+002, 9.163790e+002
2.795371e+002, 9.194201e+002
2.800192e+002, 9.227540e+002
2.805013e+002, 9.264506e+002
2.809834e+002, 9.303064e+002
2.814655e+002, 9.343455e+002
2.819477e+002, 9.397841e+002
2.824298e+002, 9.467081e+002
2.829119e+002, 9.546258e+002
2.833940e+002, 9.629666e+002
2.838761e+002, 9.717239e+002
2.843582e+002, 9.806702e+002
2.848404e+002, 9.897260e+002
2.853225e+002, 9.988807e+002
2.858046e+002, 1.008222e+003
2.862867e+002, 1.017698e+003
2.867688e+002, 1.027140e+003
2.872509e+002, 1.035943e+003
2.877331e+002, 1.044213e+003
2.882152e+002, 1.053531e+003
2.886973e+002, 1.064973e+003
2.891794e+002, 1.077734e+003
2.896615e+002, 1.088731e+003
2.901436e+002, 1.097949e+003
2.906258e+002, 1.106868e+003
2.911079e+002, 1.117287e+003
2.915900e+002, 1.128877e+003
2.920721e+002, 1.139743e+003
2.925542e+002, 1.148989e+003
2.930363e+002, 1.157512e+003
2.935185e+002, 1.167371e+003
2.940006e+002, 1.178629e+003
2.944827e+002, 1.189399e+003
2.949648e+002, 1.198736e+003
2.954469e+002, 1.206691e+003
2.959290e+002, 1.213154e+003
2.964112e+002, 1.217912e+003
2.968933e+002, 1.221609e+003
2.973754e+002, 1.225380e+003
2.978575e+002, 1.229045e+003
2.983396e+002, 1.231620e+003
2.988217e+002, 1.232493e+003
2.993039e+002, 1.231777e+003
2.997860e+002, 1.229701e+003
3.002681e+002, 1.226297e+003
3.007502e+002, 1.221470e+003
3.012323e+002, 1.215171e+003
3.017144e+002, 1.207327e+003
3.021966e+002, 1.198133e+003
3.026787e+002, 1.187146e+003
3.031608e+002, 1.174950e+003
3.036429e+002, 1.161931e+003
3.041250e+002, 1.148172e+003
3.046071e+002, 1.134115e+003
3.050893e+002, 1.120401e+003
3.055714e+002, 1.106706e+003
3.060535e+002, 1.092885e+003
3.065356e+002, 1.078668e+003
3.070177e+002, 1.064224e+003
3.074998e+002, 1.049715e+003
3.079820e+002, 1.035024e+003
3.084641e+002, 1.020983e+003
3.089462e+002, 1.008201e+003
3.094283e+002, 9.963559e+002
3.099104e+002, 9.851639e+002
3.103925e+002, 9.746927e+002
3.108747e+002, 9.648262e+002
3.113568e+002, 9.556415e+002
3.118389e+002, 9.471376e+002
3.123210e+002, 9.393046e+002
3.128031e+002, 9.317372e+002
3.132852e+002, 9.249415e+002
3.137674e+002, 9.194119e+002
3.142495e+002, 9.161177e+002
3.147316e+002, 9.131193e+002
3.152137e+002, 9.092991e+002
3.156958e+002, 9.049795e+002
3.161779e+002, 9.012526e+002
3.166601e+002, 8.987048e+002
3.171422e+002, 8.967962e+002
3.176243e+002, 8.951779e+002
3.181064e+002, 8.936832e+002
3.185885e+002, 8.927033e+002
3.190706e+002, 8.921260e+002
3.195528e+002, 8.921594e+002
3.200349e+002, 8.932125e+002
3.205170e+002, 8.962444e+002
3.209991e+002, 8.996202e+002
3.214812e+002, 9.027206e+002
3.219633e+002, 9.055211e+002
3.224455e+002, 9.079268e+002
3.229276e+002, 9.092767e+002
3.234097e+002, 9.104471e+002
3.238918e+002, 9.125149e+002
3.243739e+002, 9.161315e+002
3.248560e+002, 9.201953e+002
3.253382e+002, 9.243923e+002
3.258203e+002, 9.286926e+002
3.263024e+002, 9.335663e+002
3.267845e+002, 9.400374e+002
3.272666e+002, 9.466036e+002
3.277487e+002, 9.520840e+002
3.282309e+002, 9.552250e+002
3.287130e+002, 9.586807e+002
3.291951e+002, 9.627396e+002
3.296772e+002, 9.673596e+002
3.301593e+002, 9.721635e+002
3.306414e+002, 9.774511e+002
3.311236e+002, 9.825677e+002
3.316057e+002, 9.871705e+002
3.320878e+002, 9.909769e+002
3.325699e+002, 9.947717e+002
3.330520e+002, 9.986658e+002
3.335341e+002, 1.002507e+003
3.340163e+002, 1.005850e+003
3.344984e+002, 1.008591e+003
3.349805e+002, 1.010944e+003
3.354626e+002, 1.013140e+003
3.359447e+002, 1.015474e+003
3.364268e+002, 1.016502e+003
3.369090e+002, 1.016047e+003
3.373911e+002, 1.014500e+003
3.378732e+002, 1.012548e+003
3.383553e+002, 1.010363e+003
3.388374e+002, 1.007219e+003
3.393195e+002, 1.002662e+003
3.398017e+002, 9.967873e+002
3.402838e+002, 9.911945e+002
3.407659e+002, 9.862183e+002
3.412480e+002, 9.806595e+002
3.417301e+002, 9.728135e+002
3.422122e+002, 9.625499e+002
3.426944e+002, 9.524593e+002
3.431765e+002, 9.433505e+002
3.436586e+002, 9.346871e+002
3.441407e+002, 9.249799e+002
3.446228e+002, 9.142350e+002
3.451049e+002, 9.028103e+002
3.455871e+002, 8.907137e+002
3.460692e+002, 8.779807e+002
3.465513e+002, 8.660732e+002
3.470334e+002, 8.552029e+002
3.475155e+002, 8.450236e+002
3.479977e+002, 8.354833e+002
3.484798e+002, 8.264189e+002
3.489619e+002, 8.171918e+002
3.494440e+002, 8.072029e+002
3.499261e+002, 7.967925e+002
3.504082e+002, 7.866672e+002
3.508904e+002, 7.768536e+002
3.513725e+002, 7.674850e+002
3.518546e+002, 7.584520e+002
3.523367e+002, 7.498905e+002
3.528188e+002, 7.420468e+002
3.533009e+002, 7.355099e+002
3.537831e+002, 7.294925e+002
3.542652e+002, 7.228527e+002
3.547473e+002, 7.156381e+002
3.552294e+002, 7.089262e+002
3.557115e+002, 7.040421e+002
3.561936e+002, 6.999674e+002
3.566758e+002, 6.953314e+002
3.571579e+002, 6.890885e+002
3.576400e+002, 6.829187e+002
3.581221e+002, 6.780828e+002
3.586042e+002, 6.743694e+002
3.590863e+002, 6.708395e+002
3.595685e+002, 6.669111e+002
3.600506e+002, 6.630730e+002
3.605327e+002, 6.597982e+002
3.610148e+002, 6.574670e+002
3.614969e+002, 6.548933e+002
3.619790e+002, 6.510628e+002
3.624612e+002, 6.467531e+002
3.629433e+002, 6.432063e+002
3.634254e+002, 6.412547e+002
3.639075e+002, 6.397341e+002
3.643896e+002, 6.382182e+002
3.648717e+002, 6.366604e+002
3.653539e+002, 6.351799e+002
3.658360e+002, 6.336308e+002
3.663181e+002, 6.322480e+002
3.668002e+002, 6.312068e+002
3.672823e+002, 6.308416e+002
3.677644e+002, 6.304630e+002
3.682466e+002, 6.298420e+002
3.687287e+002, 6.290264e+002
3.692108e+002, 6.285947e+002
3.696929e+002, 6.284499e+002
3.701750e+002, 6.287727e+002
3.706571e+002, 6.297042e+002
3.711393e+002, 6.318740e+002
3.716214e+002, 6.335216e+002
3.721035e+002, 6.341009e+002
3.725856e+002, 6.343475e+002
3.730677e+002, 6.360336e+002
3.735498e+002, 6.399420e+002
3.740320e+002, 6.438262e+002
3.745141e+002, 6.467105e+002
3.749962e+002, 6.483896e+002
3.754783e+002, 6.507989e+002
3.759604e+002, 6.539560e+002
3.764425e+002, 6.577663e+002
3.769247e+002, 6.623456e+002
3.774068e+002, 6.678336e+002
3.778889e+002, 6.729474e+002
3.783710e+002, 6.771705e+002
3.788531e+002, 6.807585e+002
3.793352e+002, 6.849949e+002
3.798174e+002, 6.899295e+002
3.802995e+002, 6.949235e+002
3.807816e+002, 6.990973e+002
3.812637e+002, 7.026693e+002
3.817458e+002, 7.073284e+002
3.822279e+002, 7.137335e+002
3.827101e+002, 7.205621e+002
3.831922e+002, 7.253351e+002
3.836743e+002, 7.284323e+002
3.841564e+002, 7.321560e+002
3.846385e+002, 7.386755e+002
3.851206e+002, 7.465515e+002
3.856028e+002, 7.529747e+002
3.860849e+002, 7.577892e+002
3.865670e+002, 7.615636e+002
3.870491e+002, 7.644072e+002
3.875312e+002, 7.666512e+002
3.880133e+002, 7.689979e+002
3.884955e+002, 7.721290e+002
3.889776e+002, 7.751125e+002
3.894597e+002, 7.772648e+002
3.899418e+002, 7.785539e+002
3.904239e+002, 7.787987e+002
3.909060e+002, 7.766100e+002
3.913882e+002, 7.739860e+002
3.918703e+002, 7.729453e+002
3.923524e+002, 7.747411e+002
3.928345e+002, 7.763479e+002
3.933166e+002, 7.761238e+002
3.937987e+002, 7.746843e+002
3.942809e+002, 7.732748e+002
3.947630e+002, 7.718983e+002
3.952451e+002, 7.709786e+002
3.957272e+002, 7.709553e+002
3.962093e+002, 7.720864e+002
3.966914e+002, 7.726091e+002
3.971736e+002, 7.715074e+002
3.976557e+002, 7.699525e+002
3.981378e+002, 7.690165e+002
3.986199e+002, 7.688420e+002
3.991020e+002, 7.692643e+002
3.995841e+002, 7.705877e+002
4.000663e+002, 7.726309e+002
4.005484e+002, 7.741855e+002
4.010305e+002, 7.748139e+002
4.015126e+002, 7.754290e+002
4.019947e+002, 7.765191e+002
4.024768e+002, 7.784030e+002
4.029590e+002, 7.799728e+002
4.034411e+002, 7.810327e+002
4.039232e+002, 7.819453e+002
4.044053e+002, 7.834697e+002
4.048874e+002, 7.859460e+002
4.053695e+002, 7.880226e+002
4.058517e+002, 7.889802e+002
4.063338e+002, 7.889626e+002
4.068159e+002, 7.903163e+002
4.072980e+002, 7.932702e+002
4.077801e+002, 7.968292e+002
4.082622e+002, 8.001852e+002
4.087444e+002, 8.033444e+002
4.092265e+002, 8.060344e+002
4.097086e+002, 8.079788e+002
4.101907e+002, 8.097162e+002
4.106728e+002, 8.126047e+002
4.111549e+002, 8.165331e+002
4.116371e+002, 8.202347e+002
4.121192e+002, 8.225131e+002
4.126013e+002, 8.240280e+002
4.130834e+002, 8.262912e+002
4.135655e+002, 8.294710e+002
4.140476e+002, 8.328293e+002
4.145298e+002, 8.359484e+002
4.150119e+002, 8.387133e+002
4.154940e+002, 8.409654e+002
4.159761e+002, 8.421113e+002
4.164582e+002, 8.430936e+002
4.169403e+002, 8.447916e+002
4.174225e+002, 8.471066e+002
4.179046e+002, 8.493917e+002
4.183867e+002, 8.514744e+002
4.188688e+002, 8.532318e+002
4.193509e+002, 8.544819e+002
4.198330e+002, 8.550399e+002
4.203152e+002, 8.554715e+002
4.207973e+002, 8.560468e+002
4.212794e+002, 8.566508e+002
4.217615e+002, 8.570754e+002
4.222436e+002, 8.578596e+002
4.227257e+002, 8.579205e+002
4.232079e+002, 8.565681e+002
4.236900e+002, 8.535445e+002
4.241721e+002, 8.511085e+002
4.246542e+002, 8.498907e+002
4.251363e+002, 8.490280e+002
4.256184e+002, 8.478817e+002
4.261006e+002, 8.464774e+002
4.265827e+002, 8.447727e+002
4.270648e+002, 8.428790e+002
4.275469e+002, 8.406529e+002
4.280290e+002, 8.376028e+002
4.285111e+002, 8.333817e+002
4.289933e+002, 8.289938e+002
4.294754e+002, 8.249552e+002
4.299575e+002, 8.213350e+002
4.304396e+002, 8.173879e+002
4.309217e+002, 8.131344e+002
4.314038e+002, 8.084687e+002
4.318860e+002, 8.031201e+002
4.323681e+002, 7.970551e+002
4.328502e+002, 7.914195e+002
4.333323e+002, 7.869637e+002
4.338144e+002, 7.828580e+002
4.342965e+002, 7.763240e+002
4.347787e+002, 7.674166e+002
4.352608e+002, 7.587601e+002
4.357429e+002, 7.526627e+002
4.362250e+002, 7.482209e+002
4.367071e+002, 7.432198e+002
4.371892e+002, 7.373866e+002
4.376714e+002, 7.310334e+002
4.381535e+002, 7.243886e+002
4.386356e+002, 7.175238e+002
4.391177e+002, 7.106534e+002
4.395998e+002, 7.040205e+002
4.400819e+002, 6.973056e+002
4.405641e+002, 6.899088e+002
4.410462e+002, 6.819391e+002
4.415283e+002, 6.745748e+002
4.420104e+002, 6.691104e+002
4.424925e+002, 6.642094e+002
4.429746e+002, 6.588145e+002
4.434568e+002, 6.523401e+002
4.439389e+002, 6.459183e+002
4.444210e+002, 6.397682e+002
4.449031e+002, 6.339158e+002
4.453852e+002, 6.283919e+002
4.458673e+002, 6.235811e+002
4.463495e+002, 6.188187e+002
4.468316e+002, 6.138177e+002
4.473137e+002, 6.084977e+002
4.477958e+002, 6.034875e+002
4.482779e+002, 5.989777e+002
4.487600e+002, 5.946882e+002
4.492422e+002, 5.904241e+002
4.497243e+002, 5.860832e+002
4.502064e+002, 5.819287e+002
4.506885e+002, 5.778028e+002
4.511706e+002, 5.738818e+002
4.516527e+002, 5.708818e+002
4.521349e+002, 5.690795e+002
4.526170e+002, 5.671276e+002
4.530991e+002, 5.643711e+002
4.535812e+002, 5.608055e+002
4.540633e+002, 5.573253e+002
4.545454e+002, 5.538184e+002
4.550276e+002, 5.507051e+002
4.555097e+002, 5.488285e+002
4.559918e+002, 5.479178e+002
4.564739e+002, 5.464389e+002
4.569560e+002, 5.437999e+002
4.574381e+002, 5.407338e+002
4.579203e+002, 5.383196e+002
4.584024e+002, 5.364947e+002
4.588845e+002, 5.349102e+002
4.593666e+002, 5.336984e+002
4.598488e+002, 5.324726e+002
4.603309e+002, 5.306271e+002
4.608130e+002, 5.280627e+002
4.612951e+002, 5.256306e+002
4.617772e+002, 5.242847e+002
4.622593e+002, 5.233233e+002
4.627415e+002, 5.219473e+002
4.632236e+002, 5.195590e+002
4.637057e+002, 5.170551e+002
4.641878e+002, 5.145045e+002
4.646699e+002, 5.120792e+002
4.651520e+002, 5.103308e+002
4.656342e+002, 5.106478e+002
4.661163e+002, 5.106904e+002
4.665984e+002, 5.092330e+002
4.670805e+002, 5.053642e+002
4.675626e+002, 5.024230e+002
4.680447e+002, 5.010823e+002
4.685269e+002, 5.003331e+002
4.690090e+002, 4.991486e+002
4.694911e+002, 4.973324e+002
4.699732e+002, 4.954203e+002
4.704553e+002, 4.933058e+002
4.709374e+002, 4.911574e+002
4.714196e+002, 4.897968e+002
4.719017e+002, 4.894778e+002
4.723838e+002, 4.891698e+002
4.728659e+002, 4.882293e+002
4.733480e+002, 4.866465e+002
4.738301e+002, 4.852572e+002
4.743123e+002, 4.840406e+002
4.747944e+002, 4.830992e+002
4.752765e+002, 4.827010e+002
4.757586e+002, 4.827434e+002
4.762407e+002, 4.827179e+002
4.767228e+002, 4.825457e+002
4.772050e+002, 4.821455e+002
4.776871e+002, 4.812838e+002
4.781692e+002, 4.800402e+002
4.786513e+002, 4.788008e+002
4.791334e+002, 4.776703e+002
4.796155e+002, 4.767501e+002
4.800977e+002, 4.761755e+002
4.805798e+002, 4.759854e+002
4.810619e+002, 4.759998e+002
4.815440e+002, 4.762851e+002
4.820261e+002, 4.766587e+002
4.825082e+002, 4.769098e+002
4.829904e+002, 4.770267e+002
4.834725e+002, 4.769612e+002
4.839546e+002, 4.766103e+002
4.844367e+002, 4.760336e+002
4.849188e+002, 4.755059e+002
4.854009e+002, 4.750552e+002
4.858831e+002, 4.746552e+002
4.863652e+002, 4.742138e+002
4.868473e+002, 4.735700e+002
4.873294e+002, 4.735142e+002
4.878115e+002, 4.745577e+002
4.882936e+002, 4.756961e+002
4.887758e+002, 4.757848e+002
4.892579e+002, 4.744031e+002
4.897400e+002, 4.732965e+002
4.902221e+002, 4.727929e+002
4.907042e+002, 4.727129e+002
4.911863e+002, 4.725835e+002
4.916685e+002, 4.724102e+002
4.921506e+002, 4.721469e+002
4.926327e+002, 4.717332e+002
4.931148e+002, 4.712040e+002
4.935969e+002, 4.708634e+002
4.940790e+002, 4.707641e+002
4.945612e+002, 4.703752e+002
4.950433e+002, 4.687214e+002
4.955254e+002, 4.664237e+002
4.960075e+002, 4.648539e+002
4.964896e+002, 4.647513e+002
4.969717e+002, 4.649761e+002
4.974539e+002, 4.643876e+002
4.979360e+002, 4.632689e+002
4.984181e+002, 4.623734e+002
4.989002e+002, 4.624608e+002
4.993823e+002, 4.625559e+002
4.998644e+002, 4.620138e+002
5.003466e+002, 4.607420e+002
5.008287e+002, 4.593446e+002
5.013108e+002, 4.574982e+002
5.017929e+002, 4.558777e+002
5.022750e+002, 4.549986e+002
5.027571e+002, 4.563446e+002
5.032393e+002, 4.565730e+002
5.037214e+002, 4.547087e+002
5.042035e+002, 4.518410e+002
5.046856e+002, 4.503448e+002
5.051677e+002, 4.511234e+002
5.056498e+002, 4.516232e+002
5.061320e+002, 4.509544e+002
5.066141e+002, 4.491741e+002
5.070962e+002, 4.479232e+002
5.075783e+002, 4.473208e+002
5.080604e+002, 4.468777e+002
5.085425e+002, 4.462570e+002
5.090247e+002, 4.454653e+002
5.095068e+002, 4.444698e+002
5.099889e+002, 4.432162e+002
5.104710e+002, 4.419305e+002
5.109531e+002, 4.408730e+002
5.114352e+002, 4.400415e+002
5.119174e+002, 4.394257e+002
5.123995e+002, 4.391106e+002
5.128816e+002, 4.389468e+002
5.133637e+002, 4.388265e+002
5.138458e+002, 4.387239e+002
5.143279e+002, 4.385019e+002
5.148101e+002, 4.378794e+002
5.152922e+002, 4.372160e+002
5.157743e+002, 4.368688e+002
5.162564e+002, 4.370332e+002
5.167385e+002, 4.369807e+002
5.172206e+002, 4.360789e+002
5.177028e+002, 4.349698e+002
5.181849e+002, 4.343898e+002
5.186670e+002, 4.350327e+002
5.191491e+002, 4.355428e+002
5.196312e+002, 4.356433e+002
5.201133e+002, 4.354477e+002
5.205955e+002, 4.354540e+002
5.210776e+002, 4.358506e+002
5.215597e+002, 4.361506e+002
5.220418e+002, 4.360539e+002
5.225239e+002, 4.354870e+002
5.230060e+002, 4.354772e+002
5.234882e+002, 4.361565e+002
5.239703e+002, 4.370450e+002
5.244524e+002, 4.376806e+002
5.249345e+002, 4.380708e+002
5.254166e+002, 4.383415e+002
5.258987e+002, 4.384875e+002
5.263809e+002, 4.385787e+002
5.268630e+002, 4.385210e+002
5.273451e+002, 4.384374e+002
5.278272e+002, 4.388388e+002
5.283093e+002, 4.404189e+002
5.287914e+002, 4.423525e+002
5.292736e+002, 4.436541e+002
5.297557e+002, 4.443576e+002
5.302378e+002, 4.451434e+002
5.307199e+002, 4.467769e+002
5.312020e+002, 4.484457e+002
5.316841e+002, 4.494199e+002
5.321663e+002, 4.492996e+002
5.326484e+002, 4.491026e+002
5.331305e+002, 4.489605e+002
5.336126e+002, 4.489383e+002
5.340947e+002, 4.491318e+002
5.345768e+002, 4.498127e+002
5.350590e+002, 4.504037e+002
5.355411e+002, 4.508905e+002
5.360232e+002, 4.512459e+002
5.365053e+002, 4.512002e+002
5.369874e+002, 4.505836e+002
5.374695e+002, 4.499691e+002
5.379517e+002, 4.495906e+002
5.384338e+002, 4.494412e+002
5.389159e+002, 4.498070e+002
5.393980e+002, 4.508209e+002
5.398801e+002, 4.518182e+002
5.403622e+002, 4.516733e+002
5.408444e+002, 4.507317e+002
5.413265e+002, 4.506943e+002
5.418086e+002, 4.521354e+002
5.422907e+002, 4.542202e+002
5.427728e+002, 4.557533e+002
5.432549e+002, 4.570277e+002
5.437371e+002, 4.588472e+002
5.442192e+002, 4.622457e+002
5.447013e+002, 4.658754e+002
5.451834e+002, 4.686248e+002
5.456655e+002, 4.705488e+002
5.461476e+002, 4.726133e+002
5.466298e+002, 4.750038e+002
5.471119e+002, 4.778331e+002
5.475940e+002, 4.812588e+002
5.480761e+002, 4.858029e+002
5.485582e+002, 4.899296e+002
5.490403e+002, 4.929046e+002
5.495225e+002, 4.957496e+002
5.500046e+002, 4.997176e+002
5.504867e+002, 5.054915e+002
5.509688e+002, 5.109972e+002
5.514509e+002, 5.158234e+002
5.519330e+002, 5.201625e+002
5.524152e+002, 5.246064e+002
5.528973e+002, 5.291915e+002
5.533794e+002, 5.337537e+002
5.538615e+002, 5.381882e+002
5.543436e+002, 5.425143e+002
5.548257e+002, 5.469456e+002
5.553079e+002, 5.514586e+002
5.557900e+002, 5.557922e+002
5.562721e+002, 5.598598e+002
5.567542e+002, 5.635017e+002
5.572363e+002, 5.663383e+002
5.577184e+002, 5.681844e+002
5.582006e+002, 5.695358e+002
5.586827e+002, 5.708132e+002
5.591648e+002, 5.718563e+002
5.596469e+002, 5.724171e+002
5.601290e+002, 5.725994e+002
5.606111e+002, 5.720861e+002
5.610933e+002, 5.705989e+002
5.615754e+002, 5.682344e+002
5.620575e+002, 5.656302e+002
5.625396e+002, 5.626088e+002
5.630217e+002, 5.596051e+002
5.635038e+002, 5.568355e+002
5.639860e+002, 5.544329e+002
5.644681e+002, 5.515137e+002
5.649502e+002, 5.478467e+002
5.654323e+002, 5.440251e+002
5.659144e+002, 5.407584e+002
5.663965e+002, 5.380978e+002
5.668787e+002, 5.351155e+002
5.673608e+002, 5.315761e+002
5.678429e+002, 5.279203e+002
5.683250e+002, 5.250377e+002
5.688071e+002, 5.228278e+002
5.692892e+002, 5.208876e+002
5.697714e+002, 5.190804e+002
5.702535e+002, 5.174351e+002
5.707356e+002, 5.161425e+002
5.712177e+002, 5.151193e+002
5.716998e+002, 5.139995e+002
5.721819e+002, 5.124428e+002
5.726641e+002, 5.107497e+002
5.731462e+002, 5.090318e+002
5.736283e+002, 5.071832e+002
5.741104e+002, 5.058740e+002
5.745925e+002, 5.057621e+002
5.750746e+002, 5.060182e+002
5.755568e+002, 5.058785e+002
5.760389e+002, 5.047094e+002
5.765210e+002, 5.039662e+002
5.770031e+002, 5.040428e+002
5.774852e+002, 5.044326e+002
5.779673e+002, 5.039844e+002
5.784495e+002, 5.023565e+002
5.789316e+002, 5.009789e+002
5.794137e+002, 5.002993e+002
5.798958e+002, 5.002206e+002
5.803779e+002, 5.004034e+002
5.808600e+002, 5.008656e+002
5.813422e+002, 5.012302e+002
5.818243e+002, 5.010652e+002
5.823064e+002, 5.006424e+002
5.827885e+002, 5.006910e+002
5.832706e+002, 5.012977e+002
5.837527e+002, 5.018145e+002
5.842349e+002, 5.016697e+002
5.847170e+002, 5.011401e+002
5.851991e+002, 5.005555e+002
5.856812e+002, 4.999284e+002
5.861633e+002, 4.993614e+002
5.866454e+002, 4.989093e+002
5.871276e+002, 4.985345e+002
5.876097e+002, 4.981792e+002
5.880918e+002, 4.977392e+002
5.885739e+002, 4.974160e+002
5.890560e+002, 4.973166e+002
5.895381e+002, 4.973960e+002
5.900203e+002, 4.972907e+002
5.905024e+002, 4.968463e+002
5.909845e+002, 4.965433e+002
5.914666e+002, 4.968398e+002
5.919487e+002, 4.977613e+002
5.924308e+002, 4.975316e+002
5.929130e+002, 4.959538e+002
5.933951e+002, 4.942831e+002
5.938772e+002, 4.938952e+002
5.943593e+002, 4.944525e+002
5.948414e+002, 4.948618e+002
5.953235e+002, 4.949118e+002
5.958057e+002, 4.948287e+002
5.962878e+002, 4.949443e+002
5.967699e+002, 4.950753e+002
5.972520e+002, 4.948798e+002
5.977341e+002, 4.937648e+002
5.982162e+002, 4.927240e+002
5.986984e+002, 4.921724e+002
5.991805e+002, 4.920845e+002
5.996626e+002, 4.923156e+002
6.001447e+002, 4.934334e+002
6.006268e+002, 4.942801e+002
6.011089e+002, 4.943454e+002
6.015911e+002, 4.935589e+002
6.020732e+002, 4.928798e+002
6.025553e+002, 4.923336e+002
6.030374e+002, 4.918658e+002
6.035195e+002, 4.914806e+002
6.040016e+002, 4.911962e+002
6.044838e+002, 4.907563e+002
6.049659e+002, 4.900925e+002
6.054480e+002, 4.894781e+002
6.059301e+002, 4.894543e+002
6.064122e+002, 4.898320e+002
6.068943e+002, 4.897858e+002
6.073765e+002, 4.888784e+002
6.078586e+002, 4.878280e+002
6.083407e+002, 4.876923e+002
6.088228e+002, 4.880572e+002
6.093049e+002, 4.879117e+002
6.097870e+002, 4.863324e+002
6.102692e+002, 4.845190e+002
6.107513e+002, 4.830483e+002
6.112334e+002, 4.819271e+002
6.117155e+002, 4.809652e+002
6.121976e+002, 4.803851e+002
6.126797e+002, 4.797139e+002
6.131619e+002, 4.787206e+002
6.136440e+002, 4.773117e+002
6.141261e+002, 4.759771e+002
6.146082e+002, 4.746948e+002
6.150903e+002, 4.735030e+002
6.155724e+002, 4.725124e+002
6.160546e+002, 4.717481e+002
6.165367e+002, 4.706201e+002
6.170188e+002, 4.690035e+002
6.175009e+002, 4.671703e+002
6.179830e+002, 4.654002e+002
6.184651e+002, 4.637270e+002
6.189473e+002, 4.622895e+002
6.194294e+002, 4.613295e+002
6.199115e+002, 4.604024e+002
6.203936e+002, 4.590358e+002
6.208757e+002, 4.573329e+002
6.213578e+002, 4.555904e+002
6.218400e+002, 4.538116e+002
6.223221e+002, 4.521347e+002
6.228042e+002, 4.507965e+002
6.232863e+002, 4.498054e+002
6.237684e+002, 4.483719e+002
6.242505e+002, 4.458655e+002
6.247327e+002, 4.434414e+002
6.252148e+002, 4.417357e+002
6.256969e+002, 4.409763e+002
6.261790e+002, 4.400062e+002
6.266611e+002, 4.387862e+002
6.271432e+002, 4.374640e+002
6.276254e+002, 4.360792e+002
6.281075e+002, 4.346583e+002
6.285896e+002, 4.337302e+002
6.290717e+002, 4.335411e+002
6.295538e+002, 4.334334e+002
6.300359e+002, 4.324122e+002
6.305181e+002, 4.307687e+002
6.310002e+002, 4.292043e+002
6.314823e+002, 4.277253e+002
6.319644e+002, 4.266965e+002
6.324465e+002, 4.267564e+002
6.329286e+002, 4.275363e+002
6.334108e+002, 4.278831e+002
6.338929e+002, 4.268560e+002
6.343750e+002, 4.258430e+002
6.348571e+002, 4.255198e+002
6.353392e+002, 4.259478e+002
6.358214e+002, 4.259229e+002
6.363035e+002, 4.250200e+002
6.367856e+002, 4.242761e+002
6.372677e+002, 4.243448e+002
6.377498e+002, 4.253485e+002
6.382319e+002, 4.262798e+002
6.387141e+002, 4.271374e+002
6.391962e+002, 4.279782e+002
6.396783e+002, 4.288928e+002
6.401604e+002, 4.298604e+002
6.406425e+002, 4.307668e+002
6.411246e+002, 4.315885e+002
6.416068e+002, 4.323906e+002
6.420889e+002, 4.332182e+002
6.425710e+002, 4.340819e+002
6.430531e+002, 4.349811e+002
6.435352e+002, 4.357360e+002
6.440173e+002, 4.367177e+002
6.444995e+002, 4.382764e+002
6.449816e+002, 4.401908e+002
6.454637e+002, 4.418790e+002
6.459458e+002, 4.427751e+002
6.464279e+002, 4.439303e+002
6.469100e+002, 4.456675e+002
6.473922e+002, 4.479441e+002
6.478743e+002, 4.499191e+002
6.483564e+002, 4.513859e+002
6.488385e+002, 4.532188e+002
6.493206e+002, 4.561754e+002
6.498027e+002, 4.601180e+002
6.502849e+002, 4.634700e+002
6.507670e+002, 4.662114e+002
6.512491e+002, 4.685763e+002
6.517312e+002, 4.704177e+002
6.522133e+002, 4.720877e+002
6.526954e+002, 4.742172e+002
6.531776e+002, 4.769844e+002
6.536597e+002, 4.799085e+002
6.541418e+002, 4.827909e+002
6.546239e+002, 4.856825e+002
6.551060e+002, 4.886556e+002
6.555881e+002, 4.919572e+002
6.560703e+002, 4.950574e+002
6.565524e+002, 4.976137e+002
6.570345e+002, 4.999922e+002
6.575166e+002, 5.028391e+002
6.579987e+002, 5.064038e+002
6.584808e+002, 5.098363e+002
6.589630e+002, 5.129697e+002
6.594451e+002, 5.158447e+002
6.599272e+002, 5.186880e+002
6.604093e+002, 5.215011e+002
6.608914e+002, 5.240644e+002
6.613735e+002, 5.259239e+002
6.618557e+002, 5.275762e+002
6.623378e+002, 5.301624e+002
6.628199e+002, 5.335793e+002
6.633020e+002, 5.368527e+002
6.637841e+002, 5.391436e+002
6.642662e+002, 5.411908e+002
6.647484e+002, 5.436143e+002
6.652305e+002, 5.465256e+002
6.657126e+002, 5.494111e+002
6.661947e+002, 5.523604e+002
6.666768e+002, 5.550779e+002
6.671589e+002, 5.573665e+002
6.676411e+002, 5.591022e+002
6.681232e+002, 5.606500e+002
6.686053e+002, 5.619875e+002
6.690874e+002, 5.631569e+002
6.695695e+002, 5.641517e+002
6.700516e+002, 5.649734e+002
6.705338e+002, 5.659573e+002
6.710159e+002, 5.672706e+002
6.714980e+002, 5.685289e+002
6.719801e+002, 5.689103e+002
6.724622e+002, 5.687431e+002
6.729443e+002, 5.689265e+002
6.734265e+002, 5.705163e+002
6.739086e+002, 5.719420e+002
6.743907e+002, 5.719748e+002
6.748728e+002, 5.709681e+002
6.753549e+002, 5.700029e+002
6.758370e+002, 5.693238e+002
6.763192e+002, 5.688171e+002
6.768013e+002, 5.685029e+002
6.772834e+002, 5.683629e+002
6.777655e+002, 5.682248e+002
6.782476e+002, 5.680940e+002
6.787297e+002, 5.679613e+002
6.792119e+002, 5.678170e+002
6.796940e+002, 5.676607e+002
6.801761e+002, 5.675463e+002
6.806582e+002, 5.674796e+002
6.811403e+002, 5.673665e+002
6.816224e+002, 5.672791e+002
6.821046e+002, 5.670457e+002
6.825867e+002, 5.661683e+002
6.830688e+002, 5.644744e+002
6.835509e+002, 5.630272e+002
6.840330e+002, 5.627767e+002
6.845151e+002, 5.630186e+002
6.849973e+002, 5.630330e+002
6.854794e+002, 5.626094e+002
6.859615e+002, 5.620526e+002
6.864436e+002, 5.610522e+002
6.869257e+002, 5.601136e+002
6.874078e+002, 5.599515e+002
6.878900e+002, 5.610953e+002
6.883721e+002, 5.615593e+002
6.888542e+002, 5.609006e+002
6.893363e+002, 5.596241e+002
6.898184e+002, 5.587694e+002
6.903005e+002, 5.583049e+002
6.907827e+002, 5.578077e+002
6.912648e+002, 5.573571e+002
6.917469e+002, 5.565377e+002
6.922290e+002, 5.545967e+002
6.927111e+002, 5.517457e+002
6.931932e+002, 5.487451e+002
6.936754e+002, 5.459636e+002
6.941575e+002, 5.431441e+002
6.946396e+002, 5.401827e+002
6.951217e+002, 5.370767e+002
6.956038e+002, 5.337191e+002
6.960859e+002, 5.300244e+002
6.965681e+002, 5.261955e+002
6.970502e+002, 5.221537e+002
6.975323e+002, 5.178606e+002
6.980144e+002, 5.144465e+002
6.984965e+002, 5.120750e+002
6.989786e+002, 5.100096e+002
6.994608e+002, 5.077209e+002
6.999429e+002, 5.052690e+002
7.004250e+002, 5.029871e+002
7.009071e+002, 5.008924e+002
7.013892e+002, 4.988608e+002
7.018713e+002, 4.967998e+002
7.023535e+002, 4.947347e+002
7.028356e+002, 4.926683e+002
7.033177e+002, 4.905400e+002
7.037998e+002, 4.885951e+002
7.042819e+002, 4.873368e+002
7.047640e+002, 4.860934e+002
7.052462e+002, 4.840820e+002
7.057283e+002, 4.804749e+002
7.062104e+002, 4.774774e+002
7.066925e+002, 4.752082e+002
7.071746e+002, 4.735536e+002
7.076567e+002, 4.723004e+002
7.081389e+002, 4.714406e+002
7.086210e+002, 4.713075e+002
7.091031e+002, 4.721569e+002
7.095852e+002, 4.734310e+002
7.100673e+002, 4.740460e+002
7.105494e+002, 4.742867e+002
7.110316e+002, 4.750377e+002
7.115137e+002, 4.769502e+002
7.119958e+002, 4.792747e+002
7.124779e+002, 4.813670e+002
7.129600e+002, 4.834718e+002
7.134421e+002, 4.862840e+002
7.139243e+002, 4.907530e+002
7.144064e+002, 4.951837e+002
7.148885e+002, 4.989494e+002
7.153706e+002, 5.021874e+002
7.158527e+002, 5.059098e+002
7.163348e+002, 5.104931e+002
7.168170e+002, 5.143948e+002
7.172991e+002, 5.166867e+002
7.177812e+002, 5.176365e+002
7.182633e+002, 5.185341e+002
7.187454e+002, 5.193764e+002
7.192275e+002, 5.197778e+002
7.197097e+002, 5.192042e+002
7.201918e+002, 5.181942e+002
7.206739e+002, 5.174615e+002
7.211560e+002, 5.170724e+002
7.216381e+002, 5.163915e+002
7.221202e+002, 5.148365e+002
7.226024e+002, 5.130991e+002
7.230845e+002, 5.117341e+002
7.235666e+002, 5.111183e+002
7.240487e+002, 5.098392e+002
7.245308e+002, 5.079239e+002
7.250129e+002, 5.052909e+002
7.254951e+002, 5.015839e+002
7.259772e+002, 4.966758e+002
7.264593e+002, 4.926993e+002
7.269414e+002, 4.900102e+002
7.274235e+002, 4.873053e+002
7.279056e+002, 4.827658e+002
7.283878e+002, 4.771231e+002
7.288699e+002, 4.719925e+002
7.293520e+002, 4.677870e+002
7.298341e+002, 4.638560e+002
7.303162e+002, 4.600784e+002
7.307983e+002, 4.561936e+002
7.312805e+002, 4.518216e+002
7.317626e+002, 4.459850e+002
7.322447e+002, 4.408629e+002
7.327268e+002, 4.372972e+002
7.332089e+002, 4.342232e+002
7.336910e+002, 4.298066e+002
7.341732e+002, 4.237583e+002
7.346553e+002, 4.176332e+002
7.351374e+002, 4.117660e+002
7.356195e+002, 4.060836e+002
7.361016e+002, 4.004850e+002
7.365837e+002, 3.949834e+002
7.370659e+002, 3.896268e+002
7.375480e+002, 3.842409e+002
7.380301e+002, 3.791881e+002
7.385122e+002, 3.749902e+002
7.389943e+002, 3.714194e+002
7.394764e+002, 3.679444e+002
7.399586e+002, 3.643668e+002
7.404407e+002, 3.608735e+002
7.409228e+002, 3.574969e+002
7.414049e+002, 3.542461e+002
7.418870e+002, 3.511510e+002
7.423691e+002, 3.482538e+002
7.428513e+002, 3.455508e+002
7.433334e+002, 3.430109e+002
7.438155e+002, 3.406826e+002
7.442976e+002, 3.389188e+002
7.447797e+002, 3.376795e+002
7.452618e+002, 3.363416e+002
7.457440e+002, 3.343094e+002
7.462261e+002, 3.320800e+002
7.467082e+002, 3.302473e+002
7.471903e+002, 3.287980e+002
7.476724e+002, 3.272936e+002
7.481545e+002, 3.252857e+002
7.486367e+002, 3.233911e+002
7.491188e+002, 3.219803e+002
7.496009e+002, 3.211084e+002
7.500830e+002, 3.201924e+002
7.505651e+002, 3.192442e+002
7.510472e+002, 3.181999e+002
7.515294e+002, 3.170044e+002
7.520115e+002, 3.156521e+002
7.524936e+002, 3.143419e+002
7.529757e+002, 3.130714e+002
7.534578e+002, 3.117740e+002
7.539399e+002, 3.104114e+002
7.544221e+002, 3.090045e+002
7.549042e+002, 3.075825e+002
7.553863e+002, 3.061281e+002
7.558684e+002, 3.048167e+002
7.563505e+002, 3.036854e+002
7.568326e+002, 3.027544e+002
7.573148e+002, 3.020897e+002
7.577969e+002, 3.019160e+002
7.582790e+002, 3.013937e+002
7.587611e+002, 3.003108e+002
7.592432e+002, 2.991560e+002
7.597253e+002, 2.983813e+002
7.602075e+002, 2.979883e+002
7.606896e+002, 2.976128e+002
7.611717e+002, 2.972688e+002
7.616538e+002, 2.966687e+002
7.621359e+002, 2.951974e+002
7.626180e+002, 2.933134e+002
7.631002e+002, 2.918663e+002
7.635823e+002, 2.910734e+002
7.640644e+002, 2.905939e+002
7.645465e+002, 2.904400e+002
7.650286e+002, 2.904062e+002
7.655107e+002, 2.902755e+002
7.659929e+002, 2.901030e+002
7.664750e+002, 2.896987e+002
7.669571e+002, 2.889879e+002
7.674392e+002, 2.881214e+002
7.679213e+002, 2.872116e+002
7.684034e+002, 2.862474e+002
7.688856e+002, 2.856007e+002
7.693677e+002, 2.854044e+002
7.698498e+002, 2.853205e+002
7.703319e+002, 2.848440e+002
7.708140e+002, 2.841573e+002
7.712961e+002, 2.836676e+002
7.717783e+002, 2.836606e+002
7.722604e+002, 2.835674e+002
7.727425e+002, 2.829109e+002
7.732246e+002, 2.820312e+002
7.737067e+002, 2.814481e+002
7.741888e+002, 2.816487e+002
7.746710e+002, 2.814491e+002
7.751531e+002, 2.803841e+002
7.756352e+002, 2.791846e+002
7.761173e+002, 2.794406e+002
7.765994e+002, 2.812038e+002
7.770815e+002, 2.824179e+002
7.775637e+002, 2.825319e+002
7.780458e+002, 2.820036e+002
7.785279e+002, 2.810803e+002
7.790100e+002, 2.800434e+002
7.794921e+002, 2.795401e+002
7.799742e+002, 2.804401e+002
7.804564e+002, 2.812265e+002
7.809385e+002, 2.811048e+002
7.814206e+002, 2.804100e+002
7.819027e+002, 2.798470e+002
7.823848e+002, 2.794044e+002
7.828669e+002, 2.792407e+002
7.833491e+002, 2.795666e+002
7.838312e+002, 2.800548e+002
7.843133e+002, 2.796997e+002
7.847954e+002, 2.785331e+002
7.852775e+002, 2.778810e+002
7.857596e+002, 2.784165e+002
7.862418e+002, 2.793754e+002
7.867239e+002, 2.797599e+002
7.872060e+002, 2.797233e+002
7.876881e+002, 2.796490e+002
7.881702e+002, 2.798672e+002
7.886523e+002, 2.799058e+002
7.891345e+002, 2.793205e+002
7.896166e+002, 2.784072e+002
7.900987e+002, 2.780395e+002
7.905808e+002, 2.784815e+002
7.910629e+002, 2.789738e+002
7.915450e+002, 2.793795e+002
7.920272e+002, 2.796927e+002
7.925093e+002, 2.798543e+002
7.929914e+002, 2.798763e+002
7.934735e+002, 2.798825e+002
7.939556e+002, 2.799006e+002
7.944377e+002, 2.799539e+002
7.949199e+002, 2.801048e+002
7.954020e+002, 2.803162e+002
7.958841e+002, 2.804837e+002
7.963662e+002, 2.805495e+002
7.968483e+002, 2.805856e+002
7.973304e+002, 2.805636e+002
7.978126e+002, 2.805299e+002
7.982947e+002, 2.806327e+002
7.987768e+002, 2.809079e+002
7.992589e+002, 2.812371e+002
7.997410e+002, 2.816377e+002
8.002231e+002, 2.820280e+002
8.007053e+002, 2.821132e+002
8.011874e+002, 2.819566e+002
8.016695e+002, 2.819152e+002
8.021516e+002, 2.823607e+002
8.026337e+002, 2.828220e+002
8.031158e+002, 2.826563e+002
8.035980e+002, 2.821567e+002
8.040801e+002, 2.821230e+002
8.045622e+002, 2.832501e+002
8.050443e+002, 2.843639e+002
8.055264e+002, 2.851444e+002
8.060085e+002, 2.856894e+002
8.064907e+002, 2.863111e+002
8.069728e+002, 2.870194e+002
8.074549e+002, 2.877674e+002
8.079370e+002, 2.886004e+002
8.084191e+002, 2.894037e+002
8.089012e+002, 2.898433e+002
8.093834e+002, 2.900254e+002
8.098655e+002, 2.903303e+002
8.103476e+002, 2.909016e+002
8.108297e+002, 2.917007e+002
8.113118e+002, 2.929533e+002
8.117939e+002, 2.944311e+002
8.122761e+002, 2.954239e+002
8.127582e+002, 2.951825e+002
8.132403e+002, 2.953750e+002
8.137224e+002, 2.964404e+002
8.142045e+002, 2.981062e+002
8.146866e+002, 2.996486e+002
8.151688e+002, 3.010438e+002
8.156509e+002, 3.022625e+002
8.161330e+002, 3.032054e+002
8.166151e+002, 3.040671e+002
8.170972e+002, 3.052471e+002
8.175793e+002, 3.065741e+002
8.180615e+002, 3.076417e+002
8.185436e+002, 3.078734e+002
8.190257e+002, 3.082229e+002
8.195078e+002, 3.091552e+002
8.199899e+002, 3.104774e+002
8.204720e+002, 3.116144e+002
8.209542e+002, 3.124371e+002
8.214363e+002, 3.133625e+002
8.219184e+002, 3.145147e+002
8.224005e+002, 3.157859e+002
8.228826e+002, 3.168915e+002
8.233647e+002, 3.178864e+002
8.238469e+002, 3.190538e+002
8.243290e+002, 3.207472e+002
8.248111e+002, 3.223211e+002
8.252932e+002, 3.228721e+002
8.257753e+002, 3.229401e+002
8.262574e+002, 3.235684e+002
8.267396e+002, 3.258174e+002
8.272217e+002, 3.277040e+002
8.277038e+002, 3.286295e+002
8.281859e+002, 3.291522e+002
8.286681e+002, 3.305239e+002
8.291502e+002, 3.329486e+002
8.296323e+002, 3.345903e+002
8.301144e+002, 3.347706e+002
8.305966e+002, 3.345238e+002
8.310787e+002, 3.354926e+002
8.315608e+002, 3.372909e+002
8.320429e+002, 3.390377e+002
8.325250e+002, 3.404415e+002
8.330071e+002, 3.416762e+002
8.334893e+002, 3.429135e+002
8.339714e+002, 3.440183e+002
8.344535e+002, 3.447505e+002
8.349356e+002, 3.446058e+002
8.354177e+002, 3.451092e+002
8.358998e+002, 3.465729e+002
8.363820e+002, 3.484574e+002
8.368641e+002, 3.500908e+002
8.373462e+002, 3.514602e+002
8.378283e+002, 3.524551e+002
8.383104e+002, 3.529399e+002
8.387925e+002, 3.534151e+002
8.392747e+002, 3.544388e+002
8.397568e+002, 3.557399e+002
8.402389e+002, 3.569662e+002
8.407210e+002, 3.581042e+002
8.412031e+002, 3.590142e+002
8.416852e+002, 3.592766e+002
8.421674e+002, 3.595782e+002
8.426495e+002, 3.606942e+002
8.431316e+002, 3.628562e+002
8.436137e+002, 3.644623e+002
8.440958e+002, 3.653349e+002
8.445779e+002, 3.659624e+002
8.450601e+002, 3.669611e+002
8.455422e+002, 3.681276e+002
8.460243e+002, 3.689977e+002
8.465064e+002, 3.694319e+002
8.469885e+002, 3.699307e+002
8.474706e+002, 3.708810e+002
8.479528e+002, 3.719523e+002
8.484349e+002, 3.728263e+002
8.489170e+002, 3.733186e+002
8.493991e+002, 3.741930e+002
8.498812e+002, 3.758183e+002
8.503633e+002, 3.770933e+002
8.508455e+002, 3.769708e+002
8.513276e+002, 3.756133e+002
8.518097e+002, 3.741247e+002
8.522918e+002, 3.725499e+002
8.527739e+002, 3.708630e+002
8.532560e+002, 3.690976e+002
8.537382e+002, 3.671637e+002
8.542203e+002, 3.647643e+002
8.547024e+002, 3.617896e+002
8.551845e+002, 3.594439e+002
8.556666e+002, 3.585163e+002
8.561487e+002, 3.577373e+002
8.566309e+002, 3.566715e+002
8.571130e+002, 3.553330e+002
8.575951e+002, 3.530353e+002
8.580772e+002, 3.496953e+002
8.585593e+002, 3.462696e+002
8.590414e+002, 3.431613e+002
8.595236e+002, 3.404422e+002
8.600057e+002, 3.383674e+002
8.604878e+002, 3.368722e+002
8.609699e+002, 3.355200e+002
8.614520e+002, 3.340869e+002
8.619341e+002, 3.327568e+002
8.624163e+002, 3.315502e+002
8.628984e+002, 3.304827e+002
8.633805e+002, 3.297993e+002
8.638626e+002, 3.295741e+002
8.643447e+002, 3.294795e+002
8.648268e+002, 3.294607e+002
8.653090e+002, 3.294250e+002
8.657911e+002, 3.287603e+002
8.662732e+002, 3.277611e+002
8.667553e+002, 3.276719e+002
8.672374e+002, 3.304463e+002
8.677195e+002, 3.330375e+002
8.682017e+002, 3.333419e+002
8.686838e+002, 3.320049e+002
8.691659e+002, 3.308453e+002
8.696480e+002, 3.299817e+002
8.701301e+002, 3.294187e+002
8.706122e+002, 3.293491e+002
8.710944e+002, 3.293943e+002
8.715765e+002, 3.287230e+002
8.720586e+002, 3.273972e+002
8.725407e+002, 3.258463e+002
8.730228e+002, 3.241538e+002
8.735049e+002, 3.224051e+002
8.739871e+002, 3.205424e+002
8.744692e+002, 3.187112e+002
8.749513e+002, 3.171169e+002
8.754334e+002, 3.160133e+002
8.759155e+002, 3.149002e+002
8.763976e+002, 3.137940e+002
8.768798e+002, 3.126025e+002
8.773619e+002, 3.111327e+002
8.778440e+002, 3.093626e+002
8.783261e+002, 3.078166e+002
8.788082e+002, 3.065778e+002
8.792903e+002, 3.053920e+002
8.797725e+002, 3.038446e+002
8.802546e+002, 3.022054e+002
8.807367e+002, 3.009236e+002
8.812188e+002, 3.001667e+002
8.817009e+002, 2.993079e+002
8.821830e+002, 2.978807e+002
8.826652e+002, 2.964664e+002
8.831473e+002, 2.955435e+002
8.836294e+002, 2.952467e+002
8.841115e+002, 2.943830e+002
8.845936e+002, 2.927725e+002
8.850757e+002, 2.914896e+002
8.855579e+002, 2.916395e+002
8.860400e+002, 2.926103e+002
8.865221e+002, 2.933278e+002
8.870042e+002, 2.937204e+002
8.874863e+002, 2.936562e+002
8.879684e+002, 2.926045e+002
8.884506e+002, 2.914931e+002
8.889327e+002, 2.907726e+002
8.894148e+002, 2.904553e+002
8.898969e+002, 2.905544e+002
8.903790e+002, 2.912372e+002
8.908611e+002, 2.918134e+002
8.913433e+002, 2.919042e+002
8.918254e+002, 2.917490e+002
8.923075e+002, 2.919265e+002
8.927896e+002, 2.924177e+002
8.932717e+002, 2.931387e+002
8.937538e+002, 2.942017e+002
8.942360e+002, 2.953345e+002
8.947181e+002, 2.964388e+002
8.952002e+002, 2.974715e+002
8.956823e+002, 2.982646e+002
8.961644e+002, 2.984565e+002
8.966465e+002, 2.991595e+002
8.971287e+002, 3.006546e+002
8.976108e+002, 3.025895e+002
8.980929e+002, 3.044305e+002
8.985750e+002, 3.061495e+002
8.990571e+002, 3.075207e+002
8.995392e+002, 3.083220e+002
9.000214e+002, 3.092950e+002
9.005035e+002, 3.113256e+002
9.009856e+002, 3.137401e+002
9.014677e+002, 3.157748e+002
9.019498e+002, 3.168122e+002
9.024319e+002, 3.182538e+002
9.029141e+002, 3.202523e+002
9.033962e+002, 3.224637e+002
9.038783e+002, 3.246497e+002
9.043604e+002, 3.267979e+002
9.048425e+002, 3.288937e+002
9.053246e+002, 3.309648e+002
9.058068e+002, 3.328690e+002
9.062889e+002, 3.344661e+002
9.067710e+002, 3.358858e+002
9.072531e+002, 3.371922e+002
9.077352e+002, 3.383696e+002
9.082173e+002, 3.397751e+002
9.086995e+002, 3.417809e+002
9.091816e+002, 3.435923e+002
9.096637e+002, 3.449429e+002
9.101458e+002, 3.458009e+002
9.106279e+002, 3.457861e+002
9.111100e+002, 3.449242e+002
9.115922e+002, 3.437231e+002
9.120743e+002, 3.422182e+002
9.125564e+002, 3.406974e+002
9.130385e+002, 3.394017e+002
9.135206e+002, 3.383341e+002
9.140027e+002, 3.374565e+002
9.144849e+002, 3.374963e+002
9.149670e+002, 3.367462e+002
9.154491e+002, 3.346855e+002
9.159312e+002, 3.318286e+002
9.164133e+002, 3.291779e+002
9.168954e+002, 3.267203e+002
9.173776e+002, 3.244183e+002
9.178597e+002, 3.223478e+002
9.183418e+002, 3.201124e+002
9.188239e+002, 3.170937e+002
9.193060e+002, 3.136983e+002
9.197881e+002, 3.104558e+002
9.202703e+002, 3.072661e+002
9.207524e+002, 3.047324e+002
9.212345e+002, 3.032918e+002
9.217166e+002, 3.021276e+002
9.221987e+002, 3.005916e+002
9.226808e+002, 2.986693e+002
9.231630e+002, 2.967090e+002
9.236451e+002, 2.947030e+002
9.241272e+002, 2.928196e+002
9.246093e+002, 2.912663e+002
9.250914e+002, 2.898709e+002
9.255735e+002, 2.883399e+002
9.260557e+002, 2.866787e+002
9.265378e+002, 2.854360e+002
9.270199e+002, 2.852375e+002
9.275020e+002, 2.849676e+002
9.279841e+002, 2.841328e+002
9.284662e+002, 2.828852e+002
9.289484e+002, 2.820851e+002
9.294305e+002, 2.817271e+002
9.299126e+002, 2.817490e+002
9.303947e+002, 2.824312e+002
9.308768e+002, 2.831537e+002
9.313589e+002, 2.829083e+002
9.318411e+002, 2.821627e+002
9.323232e+002, 2.819500e+002
9.328053e+002, 2.830494e+002
9.332874e+002, 2.841241e+002
9.337695e+002, 2.849049e+002
9.342516e+002, 2.856071e+002
9.347338e+002, 2.866216e+002
9.352159e+002, 2.879542e+002
9.356980e+002, 2.888664e+002
9.361801e+002, 2.891495e+002
9.366622e+002, 2.894972e+002
9.371443e+002, 2.906891e+002
9.376265e+002, 2.923171e+002
9.381086e+002, 2.939181e+002
9.385907e+002, 2.954661e+002
9.390728e+002, 2.967816e+002
9.395549e+002, 2.974458e+002
9.400370e+002, 2.983285e+002
9.405192e+002, 2.998091e+002
9.410013e+002, 3.018997e+002
9.414834e+002, 3.054699e+002
9.419655e+002, 3.104968e+002
9.424476e+002, 3.143687e+002
9.429297e+002, 3.145001e+002
9.434119e+002, 3.133139e+002
9.438940e+002, 3.129062e+002
9.443761e+002, 3.132292e+002
9.448582e+002, 3.137307e+002
9.453403e+002, 3.141986e+002
9.458224e+002, 3.150041e+002
9.463046e+002, 3.164029e+002
9.467867e+002, 3.180451e+002
9.472688e+002, 3.191266e+002
9.477509e+002, 3.196802e+002
9.482330e+002, 3.198824e+002
9.487151e+002, 3.197301e+002
9.491973e+002, 3.193943e+002
9.496794e+002, 3.191264e+002
9.501615e+002, 3.187256e+002
9.506436e+002, 3.179002e+002
9.511257e+002, 3.161109e+002
9.516078e+002, 3.149925e+002
9.520900e+002, 3.150676e+002
9.525721e+002, 3.149818e+002
9.530542e+002, 3.134534e+002
9.535363e+002, 3.107013e+002
9.540184e+002, 3.080013e+002
9.545005e+002, 3.054224e+002
9.549827e+002, 3.028900e+002
9.554648e+002, 3.003672e+002
9.559469e+002, 2.978612e+002
9.564290e+002, 2.952309e+002
9.569111e+002, 2.925230e+002
9.573932e+002, 2.904672e+002
9.578754e+002, 2.894733e+002
9.583575e+002, 2.881578e+002
9.588396e+002, 2.860038e+002
9.593217e+002, 2.833632e+002
9.598038e+002, 2.809207e+002
9.602859e+002, 2.787360e+002
9.607681e+002, 2.771088e+002
9.612502e+002, 2.765010e+002
9.617323e+002, 2.758789e+002
9.622144e+002, 2.746611e+002
9.626965e+002, 2.730901e+002
9.631786e+002, 2.714786e+002
9.636608e+002, 2.698925e+002
9.641429e+002, 2.681090e+002
9.646250e+002, 2.660186e+002
9.651071e+002, 2.641359e+002
9.655892e+002, 2.631999e+002
9.660714e+002, 2.628138e+002
9.665535e+002, 2.620387e+002
9.670356e+002, 2.608164e+002
9.675177e+002, 2.596059e+002
9.679998e+002, 2.587724e+002
9.684819e+002, 2.578895e+002
9.689641e+002, 2.566007e+002
9.694462e+002, 2.550069e+002
9.699283e+002, 2.537980e+002
9.704104e+002, 2.529837e+002
9.708925e+002, 2.524935e+002
9.713746e+002, 2.524379e+002
9.718568e+002, 2.524881e+002
9.723389e+002, 2.522017e+002
9.728210e+002, 2.516210e+002
9.733031e+002, 2.508369e+002
9.737852e+002, 2.494557e+002
9.742673e+002, 2.484594e+002
9.747495e+002, 2.482799e+002
9.752316e+002, 2.483370e+002
9.757137e+002, 2.480097e+002
9.761958e+002, 2.472791e+002
9.766779e+002, 2.466578e+002
9.771600e+002, 2.461987e+002
9.776422e+002, 2.456790e+002
9.781243e+002, 2.447001e+002
9.786064e+002, 2.436772e+002
9.790885e+002, 2.431902e+002
9.795706e+002, 2.432968e+002
9.800527e+002, 2.429610e+002
9.805349e+002, 2.416169e+002
9.810170e+002, 2.404247e+002
9.814991e+002, 2.398032e+002
9.819812e+002, 2.396138e+002
9.824633e+002, 2.395172e+002
9.829454e+002, 2.394602e+002
9.834276e+002, 2.391159e+002
9.839097e+002, 2.381966e+002
9.843918e+002, 2.371521e+002
9.848739e+002, 2.361369e+002
9.853560e+002, 2.352505e+002
9.858381e+002, 2.346905e+002
9.863203e+002, 2.347403e+002
9.868024e+002, 2.344453e+002
9.872845e+002, 2.336660e+002
9.877666e+002, 2.328110e+002
9.882487e+002, 2.323748e+002
9.887308e+002, 2.321864e+002
9.892130e+002, 2.317521e+002
9.896951e+002, 2.310435e+002
9.901772e+002, 2.303634e+002
9.906593e+002, 2.300478e+002
9.911414e+002, 2.296362e+002
9.916235e+002, 2.287083e+002
9.921057e+002, 2.274209e+002
9.925878e+002, 2.267061e+002
9.930699e+002, 2.266368e+002
9.935520e+002, 2.265795e+002
9.940341e+002, 2.263580e+002
9.945162e+002, 2.259450e+002
9.949984e+002, 2.251464e+002
9.954805e+002, 2.241602e+002
9.959626e+002, 2.233668e+002
9.964447e+002, 2.230758e+002
9.969268e+002, 2.226417e+002
9.974089e+002, 2.217401e+002
9.978911e+002, 2.209223e+002
9.983732e+002, 2.208827e+002
9.988553e+002, 2.215791e+002
9.993374e+002, 2.214296e+002
9.998195e+002, 2.203642e+002
1.000302e+003, 2.193472e+002
1.000784e+003, 2.191976e+002
1.001266e+003, 2.193264e+002
1.001748e+003, 2.193594e+002
1.002230e+003, 2.192433e+002
1.002712e+003, 2.187457e+002
1.003194e+003, 2.175173e+002
1.003676e+003, 2.166915e+002
1.004159e+003, 2.166434e+002
1.004641e+003, 2.170404e+002
1.005123e+003, 2.173344e+002
1.005605e+003, 2.175039e+002
1.006087e+003, 2.174822e+002
1.006569e+003, 2.172148e+002
1.007051e+003, 2.168509e+002
1.007533e+003, 2.164155e+002
1.008016e+003, 2.159511e+002
1.008498e+003, 2.154883e+002
1.008980e+003, 2.150292e+002
1.009462e+003, 2.145509e+002
1.009944e+003, 2.140231e+002
1.010426e+003, 2.136853e+002
1.010908e+003, 2.139743e+002
1.011390e+003, 2.143952e+002
1.011872e+003, 2.141895e+002
1.012355e+003, 2.134823e+002
1.012837e+003, 2.129020e+002
1.013319e+003, 2.128329e+002
1.013801e+003, 2.126400e+002
1.014283e+003, 2.120679e+002
1.014765e+003, 2.114169e+002
1.015247e+003, 2.113271e+002
1.015729e+003, 2.117147e+002
1.016211e+003, 2.119220e+002
1.016694e+003, 2.117796e+002
1.017176e+003, 2.116535e+002
1.017658e+003, 2.119830e+002
1.018140e+003, 2.123746e+002
1.018622e+003, 2.124302e+002
1.019104e+003, 2.120497e+002
1.019586e+003, 2.118391e+002
1.020068e+003, 2.118401e+002
1.020551e+003, 2.118841e+002
1.021033e+003, 2.118659e+002
1.021515e+003, 2.118406e+002
1.021997e+003, 2.119310e+002
1.022479e+003, 2.121169e+002
1.022961e+003, 2.123389e+002
1.023443e+003, 2.128072e+002
1.023925e+003, 2.130062e+002
1.024407e+003, 2.125478e+002
1.024890e+003, 2.119099e+002
1.025372e+003, 2.116897e+002
1.025854e+003, 2.118983e+002
1.026336e+003, 2.121558e+002
1.026818e+003, 2.124361e+002
1.027300e+003, 2.126561e+002
1.027782e+003, 2.124188e+002
1.028264e+003, 2.123170e+002
1.028746e+003, 2.132484e+002
1.029229e+003, 2.152516e+002
1.029711e+003, 2.161261e+002
1.030193e+003, 2.150833e+002
1.030675e+003, 2.143949e+002
1.031157e+003, 2.148773e+002
1.031639e+003, 2.161036e+002
1.032121e+003, 2.174079e+002
1.032603e+003, 2.186598e+002
1.033086e+003, 2.193544e+002
1.033568e+003, 2.190276e+002
1.034050e+003, 2.188291e+002
1.034532e+003, 2.193475e+002
1.035014e+003, 2.201830e+002
1.035496e+003, 2.209898e+002
1.035978e+003, 2.217558e+002
1.036460e+003, 2.225935e+002
1.036943e+003, 2.235039e+002
1.037425e+003, 2.242839e+002
1.037907e+003, 2.244558e+002
1.038389e+003, 2.246521e+002
1.038871e+003, 2.256439e+002
1.039353e+003, 2.272849e+002
1.039835e+003, 2.288999e+002
1.040317e+003, 2.303930e+002
1.040799e+003, 2.317473e+002
1.041281e+003, 2.328587e+002
1.041764e+003, 2.340085e+002
1.042246e+003, 2.356990e+002
1.042728e+003, 2.378162e+002
1.043210e+003, 2.399969e+002
1.043692e+003, 2.422345e+002
1.044174e+003, 2.442857e+002
1.044656e+003, 2.456125e+002
1.045138e+003, 2.471083e+002
1.045621e+003, 2.494351e+002
1.046103e+003, 2.525067e+002
1.046585e+003, 2.553067e+002
1.047067e+003, 2.578058e+002
1.047549e+003, 2.602536e+002
1.048031e+003, 2.625245e+002
1.048513e+003, 2.650757e+002
1.048995e+003, 2.686067e+002
1.049478e+003, 2.727155e+002
1.049960e+003, 2.767183e+002
1.050442e+003, 2.799727e+002
1.050924e+003, 2.839107e+002
1.051406e+003, 2.889053e+002
1.051888e+003, 2.940138e+002
1.052370e+003, 2.983241e+002
1.052852e+003, 3.021028e+002
1.053334e+003, 3.061721e+002
1.053817e+003, 3.105781e+002
1.054299e+003, 3.153522e+002
1.054781e+003, 3.206559e+002
1.055263e+003, 3.261876e+002
1.055745e+003, 3.319524e+002
1.056227e+003, 3.378494e+002
1.056709e+003, 3.437140e+002
1.057191e+003, 3.495547e+002
1.057673e+003, 3.551176e+002
1.058156e+003, 3.602971e+002
1.058638e+003, 3.654763e+002
1.059120e+003, 3.711085e+002
1.059602e+003, 3.769998e+002
1.060084e+003, 3.829227e+002
1.060566e+003, 3.888376e+002
1.061048e+003, 3.950544e+002
1.061530e+003, 4.018645e+002
1.062013e+003, 4.083676e+002
1.062495e+003, 4.141318e+002
1.062977e+003, 4.192966e+002
1.063459e+003, 4.245103e+002
1.063941e+003, 4.295191e+002
1.064423e+003, 4.337631e+002
1.064905e+003, 4.378896e+002
1.065387e+003, 4.399676e+002
1.065870e+003, 4.383947e+002
1.066352e+003, 4.352194e+002
1.066834e+003, 4.322048e+002
1.067316e+003, 4.293869e+002
1.067798e+003, 4.251875e+002
1.068280e+003, 4.195323e+002
1.068762e+003, 4.130878e+002
1.069244e+003, 4.052793e+002
1.069726e+003, 3.976719e+002
1.070208e+003, 3.916596e+002
1.070691e+003, 3.870619e+002
1.071173e+003, 3.829357e+002
1.071655e+003, 3.788977e+002
1.072137e+003, 3.763911e+002
1.072619e+003, 3.758690e+002
1.073101e+003, 3.763299e+002
1.073583e+003, 3.764032e+002
1.074065e+003, 3.765344e+002
1.074548e+003, 3.778505e+002
1.075030e+003, 3.808026e+002
1.075512e+003, 3.823351e+002
1.075994e+003, 3.811182e+002
1.076476e+003, 3.789904e+002
1.076958e+003, 3.767447e+002
1.077440e+003, 3.741035e+002
1.077922e+003, 3.703340e+002
1.078405e+003, 3.653050e+002
1.078887e+003, 3.583642e+002
1.079369e+003, 3.488911e+002
1.079851e+003, 3.379601e+002
1.080333e+003, 3.255405e+002
1.080815e+003, 3.122408e+002
1.081297e+003, 2.988780e+002
1.081779e+003, 2.851668e+002
1.082261e+003, 2.726953e+002
1.082744e+003, 2.613536e+002
1.083226e+003, 2.513701e+002
1.083708e+003, 2.430404e+002
1.084190e+003, 2.360014e+002
1.084672e+003, 2.300286e+002
1.085154e+003, 2.250315e+002
1.085636e+003, 2.208082e+002
1.086118e+003, 2.174199e+002
1.086601e+003, 2.145202e+002
1.087083e+003, 2.120922e+002
1.087565e+003, 2.100897e+002
1.088047e+003, 2.085175e+002
1.088529e+003, 2.073135e+002
1.089011e+003, 2.064052e+002
1.089493e+003, 2.057840e+002
1.089975e+003, 2.050633e+002
1.090458e+003, 2.036739e+002
1.090940e+003, 2.026758e+002
1.091422e+003, 2.026328e+002
1.091904e+003, 2.031497e+002
1.092386e+003, 2.030433e+002
1.092868e+003, 2.023761e+002
1.093350e+003, 2.014534e+002
1.093832e+003, 2.001882e+002
1.094314e+003, 1.992578e+002
1.094797e+003, 1.996379e+002
1.095279e+003, 2.002079e+002
1.095761e+003, 1.997574e+002
1.096243e+003, 1.981706e+002
1.096725e+003, 1.976174e+002
1.097207e+003, 1.982166e+002
1.097689e+003, 1.985005e+002
1.098171e+003, 1.972752e+002
1.098653e+003, 1.957034e+002
1.099136e+003, 1.951531e+002
1.099618e+003, 1.952339e+002
1.100100e+003, 1.951606e+002
1.100582e+003, 1.945175e+002
1.101064e+003, 1.942392e+002
1.101546e+003, 1.944604e+002
1.102028e+003, 1.947589e+002
1.102510e+003, 1.947454e+002
1.102993e+003, 1.945225e+002
1.103475e+003, 1.942488e+002
1.103957e+003, 1.939569e+002
1.104439e+003, 1.937937e+002
1.104921e+003, 1.942325e+002
1.105403e+003, 1.942239e+002
1.105885e+003, 1.932209e+002
1.106367e+003, 1.919654e+002
1.106849e+003, 1.919888e+002
1.107332e+003, 1.930033e+002
1.107814e+003, 1.933927e+002
1.108296e+003, 1.928723e+002
1.108778e+003, 1.923668e+002
1.109260e+003, 1.926694e+002
1.109742e+003, 1.929910e+002
1.110224e+003, 1.927651e+002
1.110706e+003, 1.921086e+002
1.111188e+003, 1.916228e+002
1.111671e+003, 1.913048e+002
1.112153e+003, 1.910214e+002
1.112635e+003, 1.906745e+002
1.113117e+003, 1.904765e+002
1.113599e+003, 1.909748e+002
1.114081e+003, 1.915523e+002
1.114563e+003, 1.913484e+002
1.115045e+003, 1.900117e+002
1.115528e+003, 1.893765e+002
1.116010e+003, 1.895845e+002
1.116492e+003, 1.898746e+002
1.116974e+003, 1.898061e+002
1.117456e+003, 1.895728e+002
1.117938e+003, 1.894730e+002
1.118420e+003, 1.894553e+002
1.118902e+003, 1.894084e+002
1.119385e+003, 1.892276e+002
1.119867e+003, 1.890933e+002
1.120349e+003, 1.888693e+002
1.120831e+003, 1.889713e+002
1.121313e+003, 1.902048e+002
1.121795e+003, 1.919848e+002
1.122277e+003, 1.925681e+002
1.122759e+003, 1.920316e+002
1.123241e+003, 1.911762e+002
1.123724e+003, 1.900738e+002
1.124206e+003, 1.890601e+002
1.124688e+003, 1.880767e+002
1.125170e+003, 1.873516e+002
1.125652e+003, 1.874229e+002
1.126134e+003, 1.881521e+002
1.126616e+003, 1.885566e+002
1.127098e+003, 1.885123e+002
1.127580e+003, 1.884014e+002
1.128063e+003, 1.884492e+002
1.128545e+003, 1.885469e+002
1.129027e+003, 1.887005e+002
1.129509e+003, 1.888458e+002
1.129991e+003, 1.886818e+002
1.130473e+003, 1.882007e+002
1.130955e+003, 1.878474e+002
1.131437e+003, 1.877292e+002
1.131920e+003, 1.877935e+002
1.132402e+003, 1.881669e+002
1.132884e+003, 1.885777e+002
1.133366e+003, 1.887545e+002
1.133848e+003, 1.886660e+002
1.134330e+003, 1.884720e+002
1.134812e+003, 1.881407e+002
1.135294e+003, 1.878756e+002
1.135776e+003, 1.878000e+002
1.136259e+003, 1.877767e+002
1.136741e+003, 1.875136e+002
1.137223e+003, 1.872133e+002
1.137705e+003, 1.872103e+002
1.138187e+003, 1.877940e+002
1.138669e+003, 1.881773e+002
1.139151e+003, 1.883123e+002
1.139633e+003, 1.883490e+002
1.140115e+003, 1.883628e+002
1.140598e+003, 1.883618e+002
1.141080e+003, 1.883913e+002
1.141562e+003, 1.884214e+002
1.142044e+003, 1.883693e+002
1.142526e+003, 1.882890e+002
1.143008e+003, 1.879489e+002
1.143490e+003, 1.871003e+002
1.143972e+003, 1.863759e+002
1.144455e+003, 1.865597e+002
1.144937e+003, 1.873735e+002
1.145419e+003, 1.879599e+002
1.145901e+003, 1.882803e+002
1.146383e+003, 1.884000e+002
1.146865e+003, 1.881711e+002
1.147347e+003, 1.879691e+002
1.147829e+003, 1.879796e+002
1.148312e+003, 1.880096e+002
1.148794e+003, 1.876570e+002
1.149276e+003, 1.870081e+002
1.149758e+003, 1.867056e+002
1.150240e+003, 1.868279e+002
1.150722e+003, 1.869962e+002
1.151204e+003, 1.869042e+002
1.151686e+003, 1.868565e+002
1.152168e+003, 1.870736e+002
1.152651e+003, 1.874468e+002
1.153133e+003, 1.876738e+002
1.153615e+003, 1.877573e+002
1.154097e+003, 1.877784e+002
1.154579e+003, 1.877508e+002
1.155061e+003, 1.876804e+002
1.155543e+003, 1.874909e+002
1.156025e+003, 1.873232e+002
1.156507e+003, 1.873625e+002
1.156990e+003, 1.875721e+002
1.157472e+003, 1.875168e+002
1.157954e+003, 1.871710e+002
1.158436e+003, 1.869649e+002
1.158918e+003, 1.870385e+002
1.159400e+003, 1.873270e+002
1.159882e+003, 1.881640e+002
1.160364e+003, 1.889536e+002
1.160847e+003, 1.888017e+002
1.161329e+003, 1.873883e+002
1.161811e+003, 1.869761e+002
1.162293e+003, 1.877553e+002
1.162775e+003, 1.883487e+002
1.163257e+003, 1.878479e+002
1.163739e+003, 1.870372e+002
1.164221e+003, 1.868934e+002
1.164703e+003, 1.871321e+002
1.165186e+003, 1.872669e+002
1.165668e+003, 1.870242e+002
1.166150e+003, 1.871835e+002
1.166632e+003, 1.878915e+002
1.167114e+003, 1.884500e+002
1.167596e+003, 1.880569e+002
1.168078e+003, 1.873725e+002
1.168560e+003, 1.876199e+002
1.169042e+003, 1.884674e+002
1.169525e+003, 1.890189e+002
1.170007e+003, 1.888902e+002
1.170489e+003, 1.886628e+002
1.170971e+003, 1.883075e+002
1.171453e+003, 1.880005e+002
1.171935e+003, 1.878907e+002
1.172417e+003, 1.879556e+002
1.172899e+003, 1.883498e+002
1.173382e+003, 1.889371e+002
1.173864e+003, 1.890442e+002
1.174346e+003, 1.877130e+002
1.174828e+003, 1.869908e+002
1.175310e+003, 1.873543e+002
1.175792e+003, 1.880407e+002
1.176274e+003, 1.879979e+002
1.176756e+003, 1.875378e+002
1.177239e+003, 1.874658e+002
1.177721e+003, 1.878145e+002
1.178203e+003, 1.879931e+002
1.178685e+003, 1.875102e+002
1.179167e+003, 1.871634e+002
1.179649e+003, 1.871501e+002
1.180131e+003, 1.873549e+002
1.180613e+003, 1.876211e+002
1.181095e+003, 1.879284e+002
1.181578e+003, 1.882654e+002
1.182060e+003, 1.886426e+002
1.182542e+003, 1.888161e+002
1.183024e+003, 1.883548e+002
1.183506e+003, 1.880828e+002
1.183988e+003, 1.884116e+002
1.184470e+003, 1.890168e+002
1.184952e+003, 1.890854e+002
1.185434e+003, 1.887144e+002
1.185917e+003, 1.881348e+002
1.186399e+003, 1.872927e+002
1.186881e+003, 1.868608e+002
1.187363e+003, 1.876956e+002
1.187845e+003, 1.884324e+002
1.188327e+003, 1.882792e+002
1.188809e+003, 1.875706e+002
1.189291e+003, 1.877771e+002
1.189774e+003, 1.886363e+002
1.190256e+003, 1.888171e+002
1.190738e+003, 1.875208e+002
1.191220e+003, 1.865748e+002
1.191702e+003, 1.871698e+002
1.192184e+003, 1.881489e+002
1.192666e+003, 1.889001e+002
1.193148e+003, 1.893950e+002
1.193630e+003, 1.893279e+002
1.194113e+003, 1.887832e+002
1.194595e+003, 1.882331e+002
1.195077e+003, 1.877681e+002
1.195559e+003, 1.875439e+002
1.196041e+003, 1.879444e+002
1.196523e+003, 1.883598e+002
1.197005e+003, 1.881814e+002
1.197487e+003, 1.874817e+002
1.197969e+003, 1.877033e+002
1.198452e+003, 1.887049e+002
1.198934e+003, 1.894145e+002
1.199416e+003, 1.886582e+002
1.199898e+003, 1.882580e+002
1.200380e+003, 1.895411e+002
1.200862e+003, 1.912801e+002
1.201344e+003, 1.924584e+002
1.201826e+003, 1.930825e+002
1.202309e+003, 1.921687e+002
1.202791e+003, 1.898770e+002
1.203273e+003, 1.881133e+002
1.203755e+003, 1.886298e+002
1.204237e+003, 1.892053e+002
1.204719e+003, 1.883985e+002
1.205201e+003, 1.872356e+002
1.205683e+003, 1.870449e+002
1.206166e+003, 1.878056e+002
1.206648e+003, 1.880293e+002
1.207130e+003, 1.876916e+002
1.207612e+003, 1.874389e+002
1.208094e+003, 1.877197e+002
1.208576e+003, 1.881618e+002
1.209058e+003, 1.888085e+002
1.209540e+003, 1.893541e+002
1.210022e+003, 1.891708e+002
1.210505e+003, 1.883036e+002
1.210987e+003, 1.883150e+002
1.211469e+003, 1.892922e+002
1.211951e+003, 1.901077e+002
1.212433e+003, 1.899974e+002
1.212915e+003, 1.895289e+002
1.213397e+003, 1.887605e+002
1.213879e+003, 1.879796e+002
1.214361e+003, 1.877337e+002
1.214844e+003, 1.879880e+002
1.215326e+003, 1.881680e+002
1.215808e+003, 1.882082e+002
1.216290e+003, 1.883315e+002
1.216772e+003, 1.888579e+002
1.217254e+003, 1.893243e+002
1.217736e+003, 1.893531e+002
1.218218e+003, 1.892115e+002
1.218701e+003, 1.895568e+002
1.219183e+003, 1.903227e+002
1.219665e+003, 1.907899e+002
1.220147e+003, 1.908477e+002
1.220629e+003, 1.905697e+002
1.221111e+003, 1.895256e+002
1.221593e+003, 1.886638e+002
1.222075e+003, 1.885105e+002
1.222557e+003, 1.888746e+002
1.223040e+003, 1.895015e+002
1.223522e+003, 1.902968e+002
1.224004e+003, 1.904296e+002
1.224486e+003, 1.897043e+002
1.224968e+003, 1.888703e+002
1.225450e+003, 1.879712e+002
1.225932e+003, 1.875893e+002
1.226414e+003, 1.882282e+002
1.226896e+003, 1.894258e+002
1.227379e+003, 1.897154e+002
1.227861e+003, 1.892594e+002
1.228343e+003, 1.889147e+002
1.228825e+003, 1.888644e+002
1.229307e+003, 1.889702e+002
1.229789e+003, 1.893685e+002
1.230271e+003, 1.896577e+002
1.230753e+003, 1.895748e+002
1.231236e+003, 1.892729e+002
1.231718e+003, 1.893045e+002
1.232200e+003, 1.895800e+002
1.232682e+003, 1.897080e+002
1.233164e+003, 1.895332e+002
1.233646e+003, 1.894870e+002
1.234128e+003, 1.901084e+002
1.234610e+003, 1.905176e+002
1.235093e+003, 1.902244e+002
1.235575e+003, 1.894770e+002
1.236057e+003, 1.888802e+002
1.236539e+003, 1.885172e+002
1.237021e+003, 1.887914e+002
1.237503e+003, 1.900638e+002
1.237985e+003, 1.910182e+002
1.238467e+003, 1.910088e+002
1.238949e+003, 1.907237e+002
1.239432e+003, 1.903499e+002
1.239914e+003, 1.899816e+002
1.240396e+003, 1.899311e+002
1.240878e+003, 1.901271e+002
1.241360e+003, 1.904177e+002
1.241842e+003, 1.908802e+002
1.242324e+003, 1.910240e+002
1.242806e+003, 1.904875e+002
1.243288e+003, 1.900451e+002
1.243771e+003, 1.900656e+002
1.244253e+003, 1.904552e+002
1.244735e+003, 1.912360e+002
1.245217e+003, 1.921531e+002
1.245699e+003, 1.925740e+002
1.246181e+003, 1.921231e+002
1.246663e+003, 1.917163e+002
1.247145e+003, 1.914027e+002
1.247628e+003, 1.912771e+002
1.248110e+003, 1.914402e+002
1.248592e+003, 1.917734e+002
1.249074e+003, 1.921363e+002
1.249556e+003, 1.924461e+002
1.250038e+003, 1.925170e+002
1.250520e+003, 1.920811e+002
1.251002e+003, 1.920327e+002
1.251484e+003, 1.925605e+002
1.251967e+003, 1.929756e+002
1.252449e+003, 1.927298e+002
1.252931e+003, 1.922953e+002
1.253413e+003, 1.925640e+002
1.253895e+003, 1.931485e+002
1.254377e+003, 1.933192e+002
1.254859e+003, 1.926275e+002
1.255341e+003, 1.924658e+002
1.255823e+003, 1.929731e+002
1.256306e+003, 1.933385e+002
1.256788e+003, 1.929252e+002
1.257270e+003, 1.923084e+002
1.257752e+003, 1.921903e+002
1.258234e+003, 1.923456e+002
1.258716e+003, 1.924050e+002
1.259198e+003, 1.922738e+002
1.259680e+003, 1.923409e+002
1.260163e+003, 1.926323e+002
1.260645e+003, 1.929085e+002
1.261127e+003, 1.931099e+002
1.261609e+003, 1.931534e+002
1.262091e+003, 1.928233e+002
1.262573e+003, 1.923610e+002
1.263055e+003, 1.920299e+002
1.263537e+003, 1.917711e+002
1.264020e+003, 1.923689e+002
1.264502e+003, 1.938072e+002
1.264984e+003, 1.947956e+002
1.265466e+003, 1.941560e+002
1.265948e+003, 1.933497e+002
1.266430e+003, 1.933628e+002
1.266912e+003, 1.937021e+002
1.267394e+003, 1.937777e+002
1.267876e+003, 1.935815e+002
1.268359e+003, 1.935824e+002
1.268841e+003, 1.937676e+002
1.269323e+003, 1.940279e+002
1.269805e+003, 1.945062e+002
1.270287e+003, 1.947779e+002
1.270769e+003, 1.943915e+002
1.271251e+003, 1.939453e+002
1.271733e+003, 1.940457e+002
1.272215e+003, 1.945637e+002
1.272698e+003, 1.941901e+002
1.273180e+003, 1.931589e+002
1.273662e+003, 1.925619e+002
1.274144e+003, 1.933177e+002
1.274626e+003, 1.939669e+002
1.275108e+003, 1.941604e+002
1.275590e+003, 1.942291e+002
1.276072e+003, 1.944499e+002
1.276555e+003, 1.947466e+002
1.277037e+003, 1.948683e+002
1.277519e+003, 1.948369e+002
1.278001e+003, 1.947184e+002
1.278483e+003, 1.944174e+002
1.278965e+003, 1.942175e+002
1.279447e+003, 1.941407e+002
1.279929e+003, 1.941448e+002
1.280411e+003, 1.942152e+002
1.280894e+003, 1.943342e+002
1.281376e+003, 1.944884e+002
1.281858e+003, 1.946634e+002
1.282340e+003, 1.948357e+002
1.282822e+003, 1.951103e+002
1.283304e+003, 1.950984e+002
1.283786e+003, 1.947257e+002
1.284268e+003, 1.944414e+002
1.284750e+003, 1.946314e+002
1.285233e+003, 1.950066e+002
1.285715e+003, 1.952249e+002
1.286197e+003, 1.953885e+002
1.286679e+003, 1.957089e+002
1.287161e+003, 1.962926e+002
1.287643e+003, 1.965734e+002
1.288125e+003, 1.965409e+002
1.288607e+003, 1.964331e+002
1.289090e+003, 1.962670e+002
1.289572e+003, 1.962256e+002
1.290054e+003, 1.965535e+002
1.290536e+003, 1.970090e+002
1.291018e+003, 1.972945e+002
1.291500e+003, 1.974046e+002
1.291982e+003, 1.974772e+002
1.292464e+003, 1.975107e+002
1.292947e+003, 1.974921e+002
1.293429e+003, 1.972674e+002
1.293911e+003, 1.971955e+002
1.294393e+003, 1.976447e+002
1.294875e+003, 1.981277e+002
1.295357e+003, 1.982418e+002
1.295839e+003, 1.980658e+002
1.296321e+003, 1.980460e+002
1.296803e+003, 1.981709e+002
1.297286e+003, 1.983886e+002
1.297768e+003, 1.988206e+002
1.298250e+003, 1.990882e+002
1.298732e+003, 1.990542e+002
1.299214e+003, 1.990386e+002
1.299696e+003, 1.992686e+002
1.300178e+003, 1.996506e+002
1.300660e+003, 2.000885e+002
##END=



