##NAMES=Tundrite-(Nd)
##RRUFFID=R130565
##IDEAL CHEMISTRY=Na_2_Nd^3+^_2_Ti^4+^O_2_(SiO_4_)(CO_3_)_2_
##LOCALITY=Ilimaussaq complex, Narsaq, Kitaa, Greenland
##OWNER=RRUFF
##SOURCE=Rock Currier
##DESCRIPTION=Pale tan prismatic crystals associated with green to dark-green prismatic aegirine, white microcline, and pinkish fluorite.
##STATUS=The identification of this mineral has been confirmed only by single crystal X-ray diffraction.
##URL=rruff.info/R130565
8.813672e+001, 3.292269e+002
8.861884e+001, 3.320557e+002
8.910095e+001, 3.356796e+002
8.958307e+001, 3.414421e+002
9.006519e+001, 3.491117e+002
9.054730e+001, 3.578246e+002
9.102942e+001, 3.686214e+002
9.151154e+001, 3.787240e+002
9.199365e+001, 3.843598e+002
9.247577e+001, 3.863078e+002
9.295789e+001, 3.881598e+002
9.344000e+001, 3.928475e+002
9.392212e+001, 3.991069e+002
9.440424e+001, 4.043163e+002
9.488635e+001, 4.082628e+002
9.536847e+001, 4.116509e+002
9.585059e+001, 4.155249e+002
9.633270e+001, 4.198427e+002
9.681482e+001, 4.247358e+002
9.729694e+001, 4.301091e+002
9.777905e+001, 4.359743e+002
9.826117e+001, 4.429657e+002
9.874329e+001, 4.516729e+002
9.922540e+001, 4.616948e+002
9.970752e+001, 4.702509e+002
1.001896e+002, 4.767592e+002
1.006718e+002, 4.828121e+002
1.011539e+002, 4.903318e+002
1.016360e+002, 4.996074e+002
1.021181e+002, 5.093988e+002
1.026002e+002, 5.191199e+002
1.030823e+002, 5.285577e+002
1.035645e+002, 5.390945e+002
1.040466e+002, 5.506599e+002
1.045287e+002, 5.633933e+002
1.050108e+002, 5.779948e+002
1.054929e+002, 5.951087e+002
1.059750e+002, 6.130261e+002
1.064572e+002, 6.313619e+002
1.069393e+002, 6.526640e+002
1.074214e+002, 6.699198e+002
1.079035e+002, 6.821161e+002
1.083856e+002, 6.903510e+002
1.088677e+002, 6.978658e+002
1.093499e+002, 7.051735e+002
1.098320e+002, 7.115625e+002
1.103141e+002, 7.167340e+002
1.107962e+002, 7.202840e+002
1.112783e+002, 7.232339e+002
1.117604e+002, 7.259450e+002
1.122426e+002, 7.283281e+002
1.127247e+002, 7.294876e+002
1.132068e+002, 7.285078e+002
1.136889e+002, 7.266737e+002
1.141710e+002, 7.248718e+002
1.146531e+002, 7.234008e+002
1.151353e+002, 7.218494e+002
1.156174e+002, 7.197787e+002
1.160995e+002, 7.171903e+002
1.165816e+002, 7.151986e+002
1.170637e+002, 7.143194e+002
1.175458e+002, 7.141908e+002
1.180280e+002, 7.144169e+002
1.185101e+002, 7.141371e+002
1.189922e+002, 7.146600e+002
1.194743e+002, 7.167676e+002
1.199564e+002, 7.205543e+002
1.204385e+002, 7.255027e+002
1.209207e+002, 7.312396e+002
1.214028e+002, 7.379260e+002
1.218849e+002, 7.458105e+002
1.223670e+002, 7.573192e+002
1.228491e+002, 7.691706e+002
1.233312e+002, 7.774919e+002
1.238134e+002, 7.813090e+002
1.242955e+002, 7.837978e+002
1.247776e+002, 7.875677e+002
1.252597e+002, 7.924055e+002
1.257418e+002, 7.975818e+002
1.262239e+002, 8.028882e+002
1.267061e+002, 8.082516e+002
1.271882e+002, 8.133008e+002
1.276703e+002, 8.179179e+002
1.281524e+002, 8.224750e+002
1.286345e+002, 8.276414e+002
1.291166e+002, 8.333499e+002
1.295988e+002, 8.389415e+002
1.300809e+002, 8.440524e+002
1.305630e+002, 8.486536e+002
1.310451e+002, 8.525558e+002
1.315272e+002, 8.552785e+002
1.320093e+002, 8.575500e+002
1.324915e+002, 8.611343e+002
1.329736e+002, 8.660847e+002
1.334557e+002, 8.717869e+002
1.339378e+002, 8.776428e+002
1.344199e+002, 8.836611e+002
1.349020e+002, 8.900707e+002
1.353842e+002, 8.969078e+002
1.358663e+002, 9.040811e+002
1.363484e+002, 9.118470e+002
1.368305e+002, 9.201690e+002
1.373126e+002, 9.291342e+002
1.377947e+002, 9.393422e+002
1.382769e+002, 9.514119e+002
1.387590e+002, 9.616361e+002
1.392411e+002, 9.686581e+002
1.397232e+002, 9.724965e+002
1.402053e+002, 9.756315e+002
1.406874e+002, 9.779319e+002
1.411696e+002, 9.798134e+002
1.416517e+002, 9.817367e+002
1.421338e+002, 9.836488e+002
1.426159e+002, 9.858903e+002
1.430980e+002, 9.887759e+002
1.435801e+002, 9.925889e+002
1.440623e+002, 9.956940e+002
1.445444e+002, 9.974578e+002
1.450265e+002, 9.989469e+002
1.455086e+002, 1.001992e+003
1.459907e+002, 1.007821e+003
1.464728e+002, 1.013683e+003
1.469550e+002, 1.018862e+003
1.474371e+002, 1.023482e+003
1.479192e+002, 1.027059e+003
1.484013e+002, 1.028816e+003
1.488834e+002, 1.029605e+003
1.493655e+002, 1.031359e+003
1.498477e+002, 1.036074e+003
1.503298e+002, 1.040015e+003
1.508119e+002, 1.041846e+003
1.512940e+002, 1.041450e+003
1.517761e+002, 1.039128e+003
1.522583e+002, 1.033894e+003
1.527404e+002, 1.026618e+003
1.532225e+002, 1.019699e+003
1.537046e+002, 1.014081e+003
1.541867e+002, 1.008366e+003
1.546688e+002, 1.001971e+003
1.551510e+002, 9.951847e+002
1.556331e+002, 9.871534e+002
1.561152e+002, 9.776750e+002
1.565973e+002, 9.668498e+002
1.570794e+002, 9.552345e+002
1.575615e+002, 9.419745e+002
1.580437e+002, 9.284431e+002
1.585258e+002, 9.154558e+002
1.590079e+002, 9.034756e+002
1.594900e+002, 8.917611e+002
1.599721e+002, 8.800248e+002
1.604542e+002, 8.683349e+002
1.609364e+002, 8.570850e+002
1.614185e+002, 8.463729e+002
1.619006e+002, 8.361785e+002
1.623827e+002, 8.264849e+002
1.628648e+002, 8.175120e+002
1.633469e+002, 8.088347e+002
1.638291e+002, 8.000262e+002
1.643112e+002, 7.912352e+002
1.647933e+002, 7.831748e+002
1.652754e+002, 7.764752e+002
1.657575e+002, 7.706020e+002
1.662396e+002, 7.649935e+002
1.667218e+002, 7.595637e+002
1.672039e+002, 7.542507e+002
1.676860e+002, 7.487448e+002
1.681681e+002, 7.431217e+002
1.686502e+002, 7.381960e+002
1.691323e+002, 7.345930e+002
1.696145e+002, 7.320330e+002
1.700966e+002, 7.301636e+002
1.705787e+002, 7.294717e+002
1.710608e+002, 7.290356e+002
1.715429e+002, 7.277469e+002
1.720250e+002, 7.255216e+002
1.725072e+002, 7.238629e+002
1.729893e+002, 7.245094e+002
1.734714e+002, 7.264797e+002
1.739535e+002, 7.279577e+002
1.744356e+002, 7.275380e+002
1.749177e+002, 7.264656e+002
1.753999e+002, 7.262584e+002
1.758820e+002, 7.270246e+002
1.763641e+002, 7.280881e+002
1.768462e+002, 7.291750e+002
1.773283e+002, 7.301184e+002
1.778104e+002, 7.304971e+002
1.782926e+002, 7.301761e+002
1.787747e+002, 7.291306e+002
1.792568e+002, 7.270859e+002
1.797389e+002, 7.239268e+002
1.802210e+002, 7.204797e+002
1.807031e+002, 7.176712e+002
1.811853e+002, 7.153906e+002
1.816674e+002, 7.133412e+002
1.821495e+002, 7.115530e+002
1.826316e+002, 7.098884e+002
1.831137e+002, 7.079438e+002
1.835958e+002, 7.055782e+002
1.840780e+002, 7.033953e+002
1.845601e+002, 7.023597e+002
1.850422e+002, 7.023448e+002
1.855243e+002, 7.023162e+002
1.860064e+002, 7.015149e+002
1.864885e+002, 7.002383e+002
1.869707e+002, 6.995721e+002
1.874528e+002, 6.996345e+002
1.879349e+002, 7.001752e+002
1.884170e+002, 7.008300e+002
1.888991e+002, 7.016057e+002
1.893812e+002, 7.026042e+002
1.898634e+002, 7.039504e+002
1.903455e+002, 7.055943e+002
1.908276e+002, 7.072991e+002
1.913097e+002, 7.090942e+002
1.917918e+002, 7.108624e+002
1.922739e+002, 7.123251e+002
1.927561e+002, 7.134774e+002
1.932382e+002, 7.147123e+002
1.937203e+002, 7.165520e+002
1.942024e+002, 7.188867e+002
1.946845e+002, 7.203176e+002
1.951666e+002, 7.206264e+002
1.956488e+002, 7.201549e+002
1.961309e+002, 7.194505e+002
1.966130e+002, 7.184772e+002
1.970951e+002, 7.175131e+002
1.975772e+002, 7.169727e+002
1.980593e+002, 7.168752e+002
1.985415e+002, 7.157716e+002
1.990236e+002, 7.134453e+002
1.995057e+002, 7.102196e+002
1.999878e+002, 7.067462e+002
2.004699e+002, 7.029697e+002
2.009520e+002, 6.992110e+002
2.014342e+002, 6.954815e+002
2.019163e+002, 6.916826e+002
2.023984e+002, 6.889642e+002
2.028805e+002, 6.876658e+002
2.033626e+002, 6.872528e+002
2.038447e+002, 6.863474e+002
2.043269e+002, 6.847942e+002
2.048090e+002, 6.832955e+002
2.052911e+002, 6.824904e+002
2.057732e+002, 6.826090e+002
2.062553e+002, 6.816803e+002
2.067374e+002, 6.790840e+002
2.072196e+002, 6.756956e+002
2.077017e+002, 6.741066e+002
2.081838e+002, 6.748647e+002
2.086659e+002, 6.759189e+002
2.091480e+002, 6.759656e+002
2.096301e+002, 6.746281e+002
2.101123e+002, 6.741288e+002
2.105944e+002, 6.749675e+002
2.110765e+002, 6.765283e+002
2.115586e+002, 6.769772e+002
2.120407e+002, 6.759901e+002
2.125228e+002, 6.746218e+002
2.130050e+002, 6.733875e+002
2.134871e+002, 6.722523e+002
2.139692e+002, 6.714678e+002
2.144513e+002, 6.713583e+002
2.149334e+002, 6.714882e+002
2.154155e+002, 6.704153e+002
2.158977e+002, 6.676190e+002
2.163798e+002, 6.646119e+002
2.168619e+002, 6.622393e+002
2.173440e+002, 6.607264e+002
2.178261e+002, 6.591008e+002
2.183082e+002, 6.571677e+002
2.187904e+002, 6.551412e+002
2.192725e+002, 6.536134e+002
2.197546e+002, 6.523651e+002
2.202367e+002, 6.520287e+002
2.207188e+002, 6.534080e+002
2.212009e+002, 6.581252e+002
2.216831e+002, 6.600097e+002
2.221652e+002, 6.576086e+002
2.226473e+002, 6.526356e+002
2.231294e+002, 6.501709e+002
2.236115e+002, 6.509148e+002
2.240936e+002, 6.529913e+002
2.245758e+002, 6.557051e+002
2.250579e+002, 6.594835e+002
2.255400e+002, 6.628832e+002
2.260221e+002, 6.660781e+002
2.265042e+002, 6.688428e+002
2.269863e+002, 6.702245e+002
2.274685e+002, 6.690496e+002
2.279506e+002, 6.683412e+002
2.284327e+002, 6.696996e+002
2.289148e+002, 6.746445e+002
2.293969e+002, 6.780391e+002
2.298790e+002, 6.789669e+002
2.303612e+002, 6.785751e+002
2.308433e+002, 6.798574e+002
2.313254e+002, 6.836855e+002
2.318075e+002, 6.878755e+002
2.322896e+002, 6.914148e+002
2.327717e+002, 6.936804e+002
2.332539e+002, 6.968469e+002
2.337360e+002, 7.013192e+002
2.342181e+002, 7.064789e+002
2.347002e+002, 7.109070e+002
2.351823e+002, 7.140862e+002
2.356644e+002, 7.172472e+002
2.361466e+002, 7.209781e+002
2.366287e+002, 7.257667e+002
2.371108e+002, 7.297038e+002
2.375929e+002, 7.322422e+002
2.380750e+002, 7.341010e+002
2.385571e+002, 7.367703e+002
2.390393e+002, 7.406746e+002
2.395214e+002, 7.447346e+002
2.400035e+002, 7.486521e+002
2.404856e+002, 7.526713e+002
2.409677e+002, 7.558873e+002
2.414498e+002, 7.578132e+002
2.419320e+002, 7.592081e+002
2.424141e+002, 7.615141e+002
2.428962e+002, 7.652987e+002
2.433783e+002, 7.691071e+002
2.438604e+002, 7.724516e+002
2.443425e+002, 7.752120e+002
2.448247e+002, 7.779636e+002
2.453068e+002, 7.805143e+002
2.457889e+002, 7.831820e+002
2.462710e+002, 7.865762e+002
2.467531e+002, 7.911036e+002
2.472352e+002, 7.956384e+002
2.477174e+002, 7.997130e+002
2.481995e+002, 8.030203e+002
2.486816e+002, 8.071843e+002
2.491637e+002, 8.123436e+002
2.496458e+002, 8.182616e+002
2.501279e+002, 8.246071e+002
2.506101e+002, 8.317160e+002
2.510922e+002, 8.387028e+002
2.515743e+002, 8.452112e+002
2.520564e+002, 8.511937e+002
2.525385e+002, 8.572656e+002
2.530206e+002, 8.633586e+002
2.535028e+002, 8.696574e+002
2.539849e+002, 8.762797e+002
2.544670e+002, 8.835677e+002
2.549491e+002, 8.906354e+002
2.554312e+002, 8.972795e+002
2.559133e+002, 9.034264e+002
2.563955e+002, 9.094393e+002
2.568776e+002, 9.151182e+002
2.573597e+002, 9.209167e+002
2.578418e+002, 9.274395e+002
2.583239e+002, 9.352561e+002
2.588061e+002, 9.425568e+002
2.592882e+002, 9.489714e+002
2.597703e+002, 9.545318e+002
2.602524e+002, 9.599256e+002
2.607345e+002, 9.654053e+002
2.612166e+002, 9.704323e+002
2.616988e+002, 9.744951e+002
2.621809e+002, 9.771559e+002
2.626630e+002, 9.799745e+002
2.631451e+002, 9.835342e+002
2.636272e+002, 9.876309e+002
2.641093e+002, 9.899033e+002
2.645915e+002, 9.897305e+002
2.650736e+002, 9.888893e+002
2.655557e+002, 9.891781e+002
2.660378e+002, 9.915544e+002
2.665199e+002, 9.916306e+002
2.670020e+002, 9.884762e+002
2.674842e+002, 9.825435e+002
2.679663e+002, 9.760895e+002
2.684484e+002, 9.689222e+002
2.689305e+002, 9.616965e+002
2.694126e+002, 9.550111e+002
2.698947e+002, 9.489238e+002
2.703769e+002, 9.426843e+002
2.708590e+002, 9.360883e+002
2.713411e+002, 9.292832e+002
2.718232e+002, 9.230922e+002
2.723053e+002, 9.177731e+002
2.727874e+002, 9.122977e+002
2.732696e+002, 9.056552e+002
2.737517e+002, 8.974847e+002
2.742338e+002, 8.906433e+002
2.747159e+002, 8.854763e+002
2.751980e+002, 8.814949e+002
2.756801e+002, 8.776061e+002
2.761623e+002, 8.736644e+002
2.766444e+002, 8.704965e+002
2.771265e+002, 8.685884e+002
2.776086e+002, 8.679749e+002
2.780907e+002, 8.680947e+002
2.785728e+002, 8.690921e+002
2.790550e+002, 8.705607e+002
2.795371e+002, 8.715906e+002
2.800192e+002, 8.720448e+002
2.805013e+002, 8.731776e+002
2.809834e+002, 8.758320e+002
2.814655e+002, 8.799573e+002
2.819477e+002, 8.836215e+002
2.824298e+002, 8.866725e+002
2.829119e+002, 8.895353e+002
2.833940e+002, 8.927050e+002
2.838761e+002, 8.961705e+002
2.843582e+002, 8.999467e+002
2.848404e+002, 9.042381e+002
2.853225e+002, 9.088864e+002
2.858046e+002, 9.128098e+002
2.862867e+002, 9.158094e+002
2.867688e+002, 9.188157e+002
2.872509e+002, 9.230208e+002
2.877331e+002, 9.283409e+002
2.882152e+002, 9.335189e+002
2.886973e+002, 9.377261e+002
2.891794e+002, 9.416561e+002
2.896615e+002, 9.478681e+002
2.901436e+002, 9.565964e+002
2.906258e+002, 9.655677e+002
2.911079e+002, 9.723956e+002
2.915900e+002, 9.775482e+002
2.920721e+002, 9.836057e+002
2.925542e+002, 9.914885e+002
2.930363e+002, 1.000342e+003
2.935185e+002, 1.008258e+003
2.940006e+002, 1.015324e+003
2.944827e+002, 1.022362e+003
2.949648e+002, 1.030175e+003
2.954469e+002, 1.038638e+003
2.959290e+002, 1.047358e+003
2.964112e+002, 1.056672e+003
2.968933e+002, 1.065650e+003
2.973754e+002, 1.072624e+003
2.978575e+002, 1.077741e+003
2.983396e+002, 1.082133e+003
2.988217e+002, 1.086911e+003
2.993039e+002, 1.091386e+003
2.997860e+002, 1.094034e+003
3.002681e+002, 1.094555e+003
3.007502e+002, 1.093605e+003
3.012323e+002, 1.092108e+003
3.017144e+002, 1.089812e+003
3.021966e+002, 1.085996e+003
3.026787e+002, 1.080091e+003
3.031608e+002, 1.072477e+003
3.036429e+002, 1.063347e+003
3.041250e+002, 1.052714e+003
3.046071e+002, 1.041200e+003
3.050893e+002, 1.029760e+003
3.055714e+002, 1.017861e+003
3.060535e+002, 1.004845e+003
3.065356e+002, 9.893447e+002
3.070177e+002, 9.730602e+002
3.074998e+002, 9.578410e+002
3.079820e+002, 9.436138e+002
3.084641e+002, 9.298207e+002
3.089462e+002, 9.154810e+002
3.094283e+002, 9.013959e+002
3.099104e+002, 8.888380e+002
3.103925e+002, 8.793954e+002
3.108747e+002, 8.708863e+002
3.113568e+002, 8.618780e+002
3.118389e+002, 8.525139e+002
3.123210e+002, 8.438644e+002
3.128031e+002, 8.364423e+002
3.132852e+002, 8.299656e+002
3.137674e+002, 8.241227e+002
3.142495e+002, 8.190539e+002
3.147316e+002, 8.144102e+002
3.152137e+002, 8.099564e+002
3.156958e+002, 8.058038e+002
3.161779e+002, 8.023348e+002
3.166601e+002, 7.998818e+002
3.171422e+002, 7.980336e+002
3.176243e+002, 7.965727e+002
3.181064e+002, 7.955413e+002
3.185885e+002, 7.947246e+002
3.190706e+002, 7.937783e+002
3.195528e+002, 7.930061e+002
3.200349e+002, 7.930016e+002
3.205170e+002, 7.948522e+002
3.209991e+002, 7.967445e+002
3.214812e+002, 7.975499e+002
3.219633e+002, 7.965032e+002
3.224455e+002, 7.968974e+002
3.229276e+002, 8.006248e+002
3.234097e+002, 8.057474e+002
3.238918e+002, 8.098855e+002
3.243739e+002, 8.116733e+002
3.248560e+002, 8.134379e+002
3.253382e+002, 8.155823e+002
3.258203e+002, 8.180994e+002
3.263024e+002, 8.214355e+002
3.267845e+002, 8.263511e+002
3.272666e+002, 8.317307e+002
3.277487e+002, 8.367053e+002
3.282309e+002, 8.405691e+002
3.287130e+002, 8.447957e+002
3.291951e+002, 8.498518e+002
3.296772e+002, 8.555938e+002
3.301593e+002, 8.605546e+002
3.306414e+002, 8.639418e+002
3.311236e+002, 8.672331e+002
3.316057e+002, 8.712631e+002
3.320878e+002, 8.764580e+002
3.325699e+002, 8.816196e+002
3.330520e+002, 8.866027e+002
3.335341e+002, 8.915012e+002
3.340163e+002, 8.966882e+002
3.344984e+002, 9.027936e+002
3.349805e+002, 9.080302e+002
3.354626e+002, 9.114267e+002
3.359447e+002, 9.122928e+002
3.364268e+002, 9.141574e+002
3.369090e+002, 9.176070e+002
3.373911e+002, 9.214941e+002
3.378732e+002, 9.239405e+002
3.383553e+002, 9.247244e+002
3.388374e+002, 9.248937e+002
3.393195e+002, 9.248637e+002
3.398017e+002, 9.246174e+002
3.402838e+002, 9.234308e+002
3.407659e+002, 9.213572e+002
3.412480e+002, 9.182178e+002
3.417301e+002, 9.136537e+002
3.422122e+002, 9.076340e+002
3.426944e+002, 9.008353e+002
3.431765e+002, 8.932562e+002
3.436586e+002, 8.850538e+002
3.441407e+002, 8.771057e+002
3.446228e+002, 8.694896e+002
3.451049e+002, 8.615377e+002
3.455871e+002, 8.524778e+002
3.460692e+002, 8.424391e+002
3.465513e+002, 8.333087e+002
3.470334e+002, 8.254988e+002
3.475155e+002, 8.182264e+002
3.479977e+002, 8.102357e+002
3.484798e+002, 8.015756e+002
3.489619e+002, 7.932545e+002
3.494440e+002, 7.860729e+002
3.499261e+002, 7.796096e+002
3.504082e+002, 7.727270e+002
3.508904e+002, 7.652377e+002
3.513725e+002, 7.581573e+002
3.518546e+002, 7.525887e+002
3.523367e+002, 7.482380e+002
3.528188e+002, 7.442574e+002
3.533009e+002, 7.409070e+002
3.537831e+002, 7.374026e+002
3.542652e+002, 7.324475e+002
3.547473e+002, 7.261161e+002
3.552294e+002, 7.200109e+002
3.557115e+002, 7.153049e+002
3.561936e+002, 7.115217e+002
3.566758e+002, 7.080623e+002
3.571579e+002, 7.047236e+002
3.576400e+002, 7.016369e+002
3.581221e+002, 6.990997e+002
3.586042e+002, 6.969622e+002
3.590863e+002, 6.945897e+002
3.595685e+002, 6.913453e+002
3.600506e+002, 6.879541e+002
3.605327e+002, 6.848613e+002
3.610148e+002, 6.819946e+002
3.614969e+002, 6.798463e+002
3.619790e+002, 6.792067e+002
3.624612e+002, 6.793434e+002
3.629433e+002, 6.790035e+002
3.634254e+002, 6.772814e+002
3.639075e+002, 6.754661e+002
3.643896e+002, 6.739576e+002
3.648717e+002, 6.727549e+002
3.653539e+002, 6.720861e+002
3.658360e+002, 6.723799e+002
3.663181e+002, 6.730380e+002
3.668002e+002, 6.735153e+002
3.672823e+002, 6.739667e+002
3.677644e+002, 6.739874e+002
3.682466e+002, 6.730175e+002
3.687287e+002, 6.712271e+002
3.692108e+002, 6.705975e+002
3.696929e+002, 6.718834e+002
3.701750e+002, 6.736694e+002
3.706571e+002, 6.752537e+002
3.711393e+002, 6.766475e+002
3.716214e+002, 6.778450e+002
3.721035e+002, 6.787698e+002
3.725856e+002, 6.795425e+002
3.730677e+002, 6.803605e+002
3.735498e+002, 6.810363e+002
3.740320e+002, 6.821405e+002
3.745141e+002, 6.839290e+002
3.749962e+002, 6.864553e+002
3.754783e+002, 6.891873e+002
3.759604e+002, 6.922347e+002
3.764425e+002, 6.952626e+002
3.769247e+002, 6.976733e+002
3.774068e+002, 6.992513e+002
3.778889e+002, 7.014548e+002
3.783710e+002, 7.048026e+002
3.788531e+002, 7.089894e+002
3.793352e+002, 7.127869e+002
3.798174e+002, 7.161033e+002
3.802995e+002, 7.194352e+002
3.807816e+002, 7.230676e+002
3.812637e+002, 7.270265e+002
3.817458e+002, 7.312827e+002
3.822279e+002, 7.359716e+002
3.827101e+002, 7.407930e+002
3.831922e+002, 7.453129e+002
3.836743e+002, 7.496144e+002
3.841564e+002, 7.539636e+002
3.846385e+002, 7.588162e+002
3.851206e+002, 7.638014e+002
3.856028e+002, 7.680696e+002
3.860849e+002, 7.715305e+002
3.865670e+002, 7.749213e+002
3.870491e+002, 7.793894e+002
3.875312e+002, 7.842839e+002
3.880133e+002, 7.883333e+002
3.884955e+002, 7.905351e+002
3.889776e+002, 7.921433e+002
3.894597e+002, 7.945593e+002
3.899418e+002, 7.975512e+002
3.904239e+002, 7.997350e+002
3.909060e+002, 7.997771e+002
3.913882e+002, 7.988934e+002
3.918703e+002, 7.981060e+002
3.923524e+002, 7.974440e+002
3.928345e+002, 7.972814e+002
3.933166e+002, 7.980972e+002
3.937987e+002, 7.995282e+002
3.942809e+002, 8.008305e+002
3.947630e+002, 8.015369e+002
3.952451e+002, 8.022561e+002
3.957272e+002, 8.032459e+002
3.962093e+002, 8.045381e+002
3.966914e+002, 8.059905e+002
3.971736e+002, 8.079225e+002
3.976557e+002, 8.098283e+002
3.981378e+002, 8.112474e+002
3.986199e+002, 8.111094e+002
3.991020e+002, 8.116110e+002
3.995841e+002, 8.134254e+002
4.000663e+002, 8.162852e+002
4.005484e+002, 8.184006e+002
4.010305e+002, 8.191418e+002
4.015126e+002, 8.198211e+002
4.019947e+002, 8.210969e+002
4.024768e+002, 8.232281e+002
4.029590e+002, 8.254315e+002
4.034411e+002, 8.281296e+002
4.039232e+002, 8.306140e+002
4.044053e+002, 8.312381e+002
4.048874e+002, 8.290748e+002
4.053695e+002, 8.279563e+002
4.058517e+002, 8.295053e+002
4.063338e+002, 8.334894e+002
4.068159e+002, 8.363571e+002
4.072980e+002, 8.378350e+002
4.077801e+002, 8.391794e+002
4.082622e+002, 8.416475e+002
4.087444e+002, 8.451962e+002
4.092265e+002, 8.487267e+002
4.097086e+002, 8.520559e+002
4.101907e+002, 8.552226e+002
4.106728e+002, 8.583439e+002
4.111549e+002, 8.614153e+002
4.116371e+002, 8.643463e+002
4.121192e+002, 8.665508e+002
4.126013e+002, 8.686124e+002
4.130834e+002, 8.720486e+002
4.135655e+002, 8.770975e+002
4.140476e+002, 8.823791e+002
4.145298e+002, 8.865593e+002
4.150119e+002, 8.900048e+002
4.154940e+002, 8.935612e+002
4.159761e+002, 8.975582e+002
4.164582e+002, 9.017785e+002
4.169403e+002, 9.061890e+002
4.174225e+002, 9.107277e+002
4.179046e+002, 9.149005e+002
4.183867e+002, 9.183134e+002
4.188688e+002, 9.212388e+002
4.193509e+002, 9.237917e+002
4.198330e+002, 9.258854e+002
4.203152e+002, 9.279362e+002
4.207973e+002, 9.303854e+002
4.212794e+002, 9.328947e+002
4.217615e+002, 9.348648e+002
4.222436e+002, 9.361557e+002
4.227257e+002, 9.368873e+002
4.232079e+002, 9.370511e+002
4.236900e+002, 9.366138e+002
4.241721e+002, 9.359059e+002
4.246542e+002, 9.349321e+002
4.251363e+002, 9.337045e+002
4.256184e+002, 9.322053e+002
4.261006e+002, 9.304181e+002
4.265827e+002, 9.283748e+002
4.270648e+002, 9.258428e+002
4.275469e+002, 9.230382e+002
4.280290e+002, 9.209949e+002
4.285111e+002, 9.204476e+002
4.289933e+002, 9.192011e+002
4.294754e+002, 9.163395e+002
4.299575e+002, 9.117704e+002
4.304396e+002, 9.057081e+002
4.309217e+002, 8.975975e+002
4.314038e+002, 8.891053e+002
4.318860e+002, 8.826520e+002
4.323681e+002, 8.783165e+002
4.328502e+002, 8.739587e+002
4.333323e+002, 8.690699e+002
4.338144e+002, 8.637686e+002
4.342965e+002, 8.582654e+002
4.347787e+002, 8.525771e+002
4.352608e+002, 8.469463e+002
4.357429e+002, 8.418378e+002
4.362250e+002, 8.369213e+002
4.367071e+002, 8.311785e+002
4.371892e+002, 8.243166e+002
4.376714e+002, 8.173975e+002
4.381535e+002, 8.116548e+002
4.386356e+002, 8.067693e+002
4.391177e+002, 8.020941e+002
4.395998e+002, 7.978190e+002
4.400819e+002, 7.932842e+002
4.405641e+002, 7.874097e+002
4.410462e+002, 7.803784e+002
4.415283e+002, 7.741588e+002
4.420104e+002, 7.705423e+002
4.424925e+002, 7.678380e+002
4.429746e+002, 7.646982e+002
4.434568e+002, 7.606331e+002
4.439389e+002, 7.564163e+002
4.444210e+002, 7.516937e+002
4.449031e+002, 7.470330e+002
4.453852e+002, 7.435077e+002
4.458673e+002, 7.423455e+002
4.463495e+002, 7.414314e+002
4.468316e+002, 7.401568e+002
4.473137e+002, 7.384567e+002
4.477958e+002, 7.367539e+002
4.482779e+002, 7.347734e+002
4.487600e+002, 7.330573e+002
4.492422e+002, 7.320906e+002
4.497243e+002, 7.324250e+002
4.502064e+002, 7.323466e+002
4.506885e+002, 7.316013e+002
4.511706e+002, 7.304129e+002
4.516527e+002, 7.295490e+002
4.521349e+002, 7.292619e+002
4.526170e+002, 7.283506e+002
4.530991e+002, 7.258701e+002
4.535812e+002, 7.218885e+002
4.540633e+002, 7.196033e+002
4.545454e+002, 7.193322e+002
4.550276e+002, 7.190614e+002
4.555097e+002, 7.162966e+002
4.559918e+002, 7.114345e+002
4.564739e+002, 7.069255e+002
4.569560e+002, 7.032059e+002
4.574381e+002, 7.002354e+002
4.579203e+002, 6.981935e+002
4.584024e+002, 6.969349e+002
4.588845e+002, 6.957324e+002
4.593666e+002, 6.939518e+002
4.598488e+002, 6.920909e+002
4.603309e+002, 6.907209e+002
4.608130e+002, 6.898903e+002
4.612951e+002, 6.896020e+002
4.617772e+002, 6.902860e+002
4.622593e+002, 6.913822e+002
4.627415e+002, 6.922196e+002
4.632236e+002, 6.920093e+002
4.637057e+002, 6.920876e+002
4.641878e+002, 6.929387e+002
4.646699e+002, 6.944904e+002
4.651520e+002, 6.965235e+002
4.656342e+002, 6.990771e+002
4.661163e+002, 7.019804e+002
4.665984e+002, 7.052170e+002
4.670805e+002, 7.088479e+002
4.675626e+002, 7.125967e+002
4.680447e+002, 7.163690e+002
4.685269e+002, 7.202907e+002
4.690090e+002, 7.245439e+002
4.694911e+002, 7.291902e+002
4.699732e+002, 7.340494e+002
4.704553e+002, 7.392647e+002
4.709374e+002, 7.446623e+002
4.714196e+002, 7.496762e+002
4.719017e+002, 7.543129e+002
4.723838e+002, 7.584213e+002
4.728659e+002, 7.620901e+002
4.733480e+002, 7.653223e+002
4.738301e+002, 7.672377e+002
4.743123e+002, 7.678214e+002
4.747944e+002, 7.671317e+002
4.752765e+002, 7.655121e+002
4.757586e+002, 7.627881e+002
4.762407e+002, 7.579202e+002
4.767228e+002, 7.499559e+002
4.772050e+002, 7.403789e+002
4.776871e+002, 7.311971e+002
4.781692e+002, 7.223968e+002
4.786513e+002, 7.140911e+002
4.791334e+002, 7.063448e+002
4.796155e+002, 6.991469e+002
4.800977e+002, 6.924019e+002
4.805798e+002, 6.860565e+002
4.810619e+002, 6.805316e+002
4.815440e+002, 6.760618e+002
4.820261e+002, 6.726312e+002
4.825082e+002, 6.701827e+002
4.829904e+002, 6.701526e+002
4.834725e+002, 6.695902e+002
4.839546e+002, 6.673961e+002
4.844367e+002, 6.638427e+002
4.849188e+002, 6.602355e+002
4.854009e+002, 6.557878e+002
4.858831e+002, 6.521661e+002
4.863652e+002, 6.501711e+002
4.868473e+002, 6.504518e+002
4.873294e+002, 6.500078e+002
4.878115e+002, 6.484988e+002
4.882936e+002, 6.465588e+002
4.887758e+002, 6.446912e+002
4.892579e+002, 6.426648e+002
4.897400e+002, 6.414449e+002
4.902221e+002, 6.413033e+002
4.907042e+002, 6.419880e+002
4.911863e+002, 6.429101e+002
4.916685e+002, 6.441227e+002
4.921506e+002, 6.451046e+002
4.926327e+002, 6.452361e+002
4.931148e+002, 6.448250e+002
4.935969e+002, 6.453130e+002
4.940790e+002, 6.467763e+002
4.945612e+002, 6.487208e+002
4.950433e+002, 6.506521e+002
4.955254e+002, 6.527181e+002
4.960075e+002, 6.552937e+002
4.964896e+002, 6.585159e+002
4.969717e+002, 6.622233e+002
4.974539e+002, 6.663328e+002
4.979360e+002, 6.707833e+002
4.984181e+002, 6.752468e+002
4.989002e+002, 6.793702e+002
4.993823e+002, 6.836656e+002
4.998644e+002, 6.884664e+002
5.003466e+002, 6.938508e+002
5.008287e+002, 6.994163e+002
5.013108e+002, 7.048172e+002
5.017929e+002, 7.104641e+002
5.022750e+002, 7.166416e+002
5.027571e+002, 7.234810e+002
5.032393e+002, 7.308013e+002
5.037214e+002, 7.384420e+002
5.042035e+002, 7.465254e+002
5.046856e+002, 7.555596e+002
5.051677e+002, 7.660982e+002
5.056498e+002, 7.764752e+002
5.061320e+002, 7.860421e+002
5.066141e+002, 7.949424e+002
5.070962e+002, 8.048418e+002
5.075783e+002, 8.159476e+002
5.080604e+002, 8.274020e+002
5.085425e+002, 8.389778e+002
5.090247e+002, 8.505674e+002
5.095068e+002, 8.607819e+002
5.099889e+002, 8.696075e+002
5.104710e+002, 8.766263e+002
5.109531e+002, 8.814832e+002
5.114352e+002, 8.840928e+002
5.119174e+002, 8.841342e+002
5.123995e+002, 8.819808e+002
5.128816e+002, 8.768354e+002
5.133637e+002, 8.670768e+002
5.138458e+002, 8.531075e+002
5.143279e+002, 8.373917e+002
5.148101e+002, 8.202438e+002
5.152922e+002, 8.026299e+002
5.157743e+002, 7.850108e+002
5.162564e+002, 7.669973e+002
5.167385e+002, 7.505506e+002
5.172206e+002, 7.370353e+002
5.177028e+002, 7.253094e+002
5.181849e+002, 7.141517e+002
5.186670e+002, 7.028753e+002
5.191491e+002, 6.927709e+002
5.196312e+002, 6.840450e+002
5.201133e+002, 6.766686e+002
5.205955e+002, 6.701954e+002
5.210776e+002, 6.649047e+002
5.215597e+002, 6.601891e+002
5.220418e+002, 6.557615e+002
5.225239e+002, 6.515651e+002
5.230060e+002, 6.482676e+002
5.234882e+002, 6.459050e+002
5.239703e+002, 6.443045e+002
5.244524e+002, 6.435416e+002
5.249345e+002, 6.435541e+002
5.254166e+002, 6.433615e+002
5.258987e+002, 6.427239e+002
5.263809e+002, 6.418964e+002
5.268630e+002, 6.410134e+002
5.273451e+002, 6.401931e+002
5.278272e+002, 6.399512e+002
5.283093e+002, 6.407728e+002
5.287914e+002, 6.421528e+002
5.292736e+002, 6.435744e+002
5.297557e+002, 6.450338e+002
5.302378e+002, 6.466124e+002
5.307199e+002, 6.487423e+002
5.312020e+002, 6.507980e+002
5.316841e+002, 6.521537e+002
5.321663e+002, 6.522834e+002
5.326484e+002, 6.526713e+002
5.331305e+002, 6.537836e+002
5.336126e+002, 6.553598e+002
5.340947e+002, 6.570580e+002
5.345768e+002, 6.593553e+002
5.350590e+002, 6.611539e+002
5.355411e+002, 6.622581e+002
5.360232e+002, 6.627294e+002
5.365053e+002, 6.628263e+002
5.369874e+002, 6.625388e+002
5.374695e+002, 6.619387e+002
5.379517e+002, 6.609953e+002
5.384338e+002, 6.596840e+002
5.389159e+002, 6.584022e+002
5.393980e+002, 6.571081e+002
5.398801e+002, 6.560146e+002
5.403622e+002, 6.556656e+002
5.408444e+002, 6.558297e+002
5.413265e+002, 6.553077e+002
5.418086e+002, 6.535622e+002
5.422907e+002, 6.515497e+002
5.427728e+002, 6.502353e+002
5.432549e+002, 6.496184e+002
5.437371e+002, 6.497489e+002
5.442192e+002, 6.512281e+002
5.447013e+002, 6.530235e+002
5.451834e+002, 6.542969e+002
5.456655e+002, 6.550784e+002
5.461476e+002, 6.560370e+002
5.466298e+002, 6.573303e+002
5.471119e+002, 6.589922e+002
5.475940e+002, 6.611136e+002
5.480761e+002, 6.641070e+002
5.485582e+002, 6.667559e+002
5.490403e+002, 6.684755e+002
5.495225e+002, 6.700768e+002
5.500046e+002, 6.725319e+002
5.504867e+002, 6.762117e+002
5.509688e+002, 6.799913e+002
5.514509e+002, 6.836667e+002
5.519330e+002, 6.873194e+002
5.524152e+002, 6.913186e+002
5.528973e+002, 6.958071e+002
5.533794e+002, 6.998575e+002
5.538615e+002, 7.027772e+002
5.543436e+002, 7.047787e+002
5.548257e+002, 7.070211e+002
5.553079e+002, 7.094880e+002
5.557900e+002, 7.120800e+002
5.562721e+002, 7.148846e+002
5.567542e+002, 7.176877e+002
5.572363e+002, 7.201664e+002
5.577184e+002, 7.224071e+002
5.582006e+002, 7.238821e+002
5.586827e+002, 7.238592e+002
5.591648e+002, 7.228475e+002
5.596469e+002, 7.217028e+002
5.601290e+002, 7.215066e+002
5.606111e+002, 7.205006e+002
5.610933e+002, 7.176539e+002
5.615754e+002, 7.132168e+002
5.620575e+002, 7.089365e+002
5.625396e+002, 7.052669e+002
5.630217e+002, 7.015941e+002
5.635038e+002, 6.976596e+002
5.639860e+002, 6.934033e+002
5.644681e+002, 6.890023e+002
5.649502e+002, 6.842363e+002
5.654323e+002, 6.796685e+002
5.659144e+002, 6.761223e+002
5.663965e+002, 6.737068e+002
5.668787e+002, 6.706446e+002
5.673608e+002, 6.664293e+002
5.678429e+002, 6.620309e+002
5.683250e+002, 6.594759e+002
5.688071e+002, 6.584658e+002
5.692892e+002, 6.575172e+002
5.697714e+002, 6.558898e+002
5.702535e+002, 6.540270e+002
5.707356e+002, 6.526472e+002
5.712177e+002, 6.516398e+002
5.716998e+002, 6.504890e+002
5.721819e+002, 6.484514e+002
5.726641e+002, 6.464033e+002
5.731462e+002, 6.450554e+002
5.736283e+002, 6.445638e+002
5.741104e+002, 6.442767e+002
5.745925e+002, 6.442122e+002
5.750746e+002, 6.441357e+002
5.755568e+002, 6.438194e+002
5.760389e+002, 6.426182e+002
5.765210e+002, 6.420924e+002
5.770031e+002, 6.427166e+002
5.774852e+002, 6.438764e+002
5.779673e+002, 6.442518e+002
5.784495e+002, 6.435975e+002
5.789316e+002, 6.429760e+002
5.794137e+002, 6.427621e+002
5.798958e+002, 6.428393e+002
5.803779e+002, 6.425859e+002
5.808600e+002, 6.419891e+002
5.813422e+002, 6.415496e+002
5.818243e+002, 6.418000e+002
5.823064e+002, 6.424342e+002
5.827885e+002, 6.427371e+002
5.832706e+002, 6.426459e+002
5.837527e+002, 6.423912e+002
5.842349e+002, 6.419788e+002
5.847170e+002, 6.415733e+002
5.851991e+002, 6.413270e+002
5.856812e+002, 6.409639e+002
5.861633e+002, 6.412881e+002
5.866454e+002, 6.439543e+002
5.871276e+002, 6.473348e+002
5.876097e+002, 6.484513e+002
5.880918e+002, 6.428760e+002
5.885739e+002, 6.393780e+002
5.890560e+002, 6.408835e+002
5.895381e+002, 6.464865e+002
5.900203e+002, 6.495388e+002
5.905024e+002, 6.493164e+002
5.909845e+002, 6.479811e+002
5.914666e+002, 6.461661e+002
5.919487e+002, 6.438483e+002
5.924308e+002, 6.429910e+002
5.929130e+002, 6.437720e+002
5.933951e+002, 6.451431e+002
5.938772e+002, 6.459288e+002
5.943593e+002, 6.464408e+002
5.948414e+002, 6.478474e+002
5.953235e+002, 6.505754e+002
5.958057e+002, 6.534420e+002
5.962878e+002, 6.559243e+002
5.967699e+002, 6.575982e+002
5.972520e+002, 6.576525e+002
5.977341e+002, 6.539645e+002
5.982162e+002, 6.503278e+002
5.986984e+002, 6.484191e+002
5.991805e+002, 6.480840e+002
5.996626e+002, 6.485460e+002
6.001447e+002, 6.504745e+002
6.006268e+002, 6.523682e+002
6.011089e+002, 6.535215e+002
6.015911e+002, 6.538270e+002
6.020732e+002, 6.548356e+002
6.025553e+002, 6.570180e+002
6.030374e+002, 6.591424e+002
6.035195e+002, 6.601435e+002
6.040016e+002, 6.598939e+002
6.044838e+002, 6.602675e+002
6.049659e+002, 6.614996e+002
6.054480e+002, 6.629151e+002
6.059301e+002, 6.635841e+002
6.064122e+002, 6.636709e+002
6.068943e+002, 6.638439e+002
6.073765e+002, 6.642821e+002
6.078586e+002, 6.648876e+002
6.083407e+002, 6.655170e+002
6.088228e+002, 6.662228e+002
6.093049e+002, 6.671160e+002
6.097870e+002, 6.687205e+002
6.102692e+002, 6.701115e+002
6.107513e+002, 6.704835e+002
6.112334e+002, 6.699552e+002
6.117155e+002, 6.700364e+002
6.121976e+002, 6.718814e+002
6.126797e+002, 6.736481e+002
6.131619e+002, 6.744597e+002
6.136440e+002, 6.740850e+002
6.141261e+002, 6.739085e+002
6.146082e+002, 6.741398e+002
6.150903e+002, 6.742440e+002
6.155724e+002, 6.733480e+002
6.160546e+002, 6.713686e+002
6.165367e+002, 6.710895e+002
6.170188e+002, 6.733401e+002
6.175009e+002, 6.760400e+002
6.179830e+002, 6.758630e+002
6.184651e+002, 6.735031e+002
6.189473e+002, 6.713369e+002
6.194294e+002, 6.702399e+002
6.199115e+002, 6.696722e+002
6.203936e+002, 6.693576e+002
6.208757e+002, 6.691691e+002
6.213578e+002, 6.687304e+002
6.218400e+002, 6.676140e+002
6.223221e+002, 6.664313e+002
6.228042e+002, 6.656309e+002
6.232863e+002, 6.652373e+002
6.237684e+002, 6.643655e+002
6.242505e+002, 6.622699e+002
6.247327e+002, 6.603264e+002
6.252148e+002, 6.593581e+002
6.256969e+002, 6.597929e+002
6.261790e+002, 6.594309e+002
6.266611e+002, 6.581212e+002
6.271432e+002, 6.563513e+002
6.276254e+002, 6.543884e+002
6.281075e+002, 6.522813e+002
6.285896e+002, 6.509073e+002
6.290717e+002, 6.505756e+002
6.295538e+002, 6.505776e+002
6.300359e+002, 6.498658e+002
6.305181e+002, 6.487302e+002
6.310002e+002, 6.478923e+002
6.314823e+002, 6.478240e+002
6.319644e+002, 6.479708e+002
6.324465e+002, 6.481189e+002
6.329286e+002, 6.481848e+002
6.334108e+002, 6.479144e+002
6.338929e+002, 6.464832e+002
6.343750e+002, 6.453909e+002
6.348571e+002, 6.454615e+002
6.353392e+002, 6.467844e+002
6.358214e+002, 6.475516e+002
6.363035e+002, 6.473740e+002
6.367856e+002, 6.472166e+002
6.372677e+002, 6.477093e+002
6.377498e+002, 6.489826e+002
6.382319e+002, 6.497872e+002
6.387141e+002, 6.499370e+002
6.391962e+002, 6.503848e+002
6.396783e+002, 6.525220e+002
6.401604e+002, 6.558912e+002
6.406425e+002, 6.586163e+002
6.411246e+002, 6.602645e+002
6.416068e+002, 6.615927e+002
6.420889e+002, 6.630018e+002
6.425710e+002, 6.647089e+002
6.430531e+002, 6.670535e+002
6.435352e+002, 6.713684e+002
6.440173e+002, 6.751112e+002
6.444995e+002, 6.764669e+002
6.449816e+002, 6.763831e+002
6.454637e+002, 6.776635e+002
6.459458e+002, 6.820159e+002
6.464279e+002, 6.863229e+002
6.469100e+002, 6.896006e+002
6.473922e+002, 6.920166e+002
6.478743e+002, 6.955901e+002
6.483564e+002, 7.007869e+002
6.488385e+002, 7.058427e+002
6.493206e+002, 7.093578e+002
6.498027e+002, 7.116451e+002
6.502849e+002, 7.153285e+002
6.507670e+002, 7.204918e+002
6.512491e+002, 7.257897e+002
6.517312e+002, 7.297034e+002
6.522133e+002, 7.329648e+002
6.526954e+002, 7.368826e+002
6.531776e+002, 7.418245e+002
6.536597e+002, 7.467931e+002
6.541418e+002, 7.512768e+002
6.546239e+002, 7.555018e+002
6.551060e+002, 7.597529e+002
6.555881e+002, 7.640146e+002
6.560703e+002, 7.684078e+002
6.565524e+002, 7.732017e+002
6.570345e+002, 7.780634e+002
6.575166e+002, 7.822469e+002
6.579987e+002, 7.853696e+002
6.584808e+002, 7.888321e+002
6.589630e+002, 7.930589e+002
6.594451e+002, 7.978409e+002
6.599272e+002, 8.025638e+002
6.604093e+002, 8.072287e+002
6.608914e+002, 8.118596e+002
6.613735e+002, 8.166776e+002
6.618557e+002, 8.213887e+002
6.623378e+002, 8.252355e+002
6.628199e+002, 8.283558e+002
6.633020e+002, 8.319387e+002
6.637841e+002, 8.375909e+002
6.642662e+002, 8.434523e+002
6.647484e+002, 8.479323e+002
6.652305e+002, 8.506065e+002
6.657126e+002, 8.532787e+002
6.661947e+002, 8.566922e+002
6.666768e+002, 8.600358e+002
6.671589e+002, 8.627586e+002
6.676411e+002, 8.647546e+002
6.681232e+002, 8.662871e+002
6.686053e+002, 8.672045e+002
6.690874e+002, 8.678456e+002
6.695695e+002, 8.686822e+002
6.700516e+002, 8.697062e+002
6.705338e+002, 8.705470e+002
6.710159e+002, 8.712002e+002
6.714980e+002, 8.714649e+002
6.719801e+002, 8.707971e+002
6.724622e+002, 8.694739e+002
6.729443e+002, 8.682847e+002
6.734265e+002, 8.679485e+002
6.739086e+002, 8.674848e+002
6.743907e+002, 8.661666e+002
6.748728e+002, 8.641695e+002
6.753549e+002, 8.620527e+002
6.758370e+002, 8.600189e+002
6.763192e+002, 8.578336e+002
6.768013e+002, 8.554086e+002
6.772834e+002, 8.527568e+002
6.777655e+002, 8.501075e+002
6.782476e+002, 8.473216e+002
6.787297e+002, 8.448934e+002
6.792119e+002, 8.435413e+002
6.796940e+002, 8.431269e+002
6.801761e+002, 8.404998e+002
6.806582e+002, 8.354592e+002
6.811403e+002, 8.304287e+002
6.816224e+002, 8.279959e+002
6.821046e+002, 8.268669e+002
6.825867e+002, 8.244901e+002
6.830688e+002, 8.203759e+002
6.835509e+002, 8.163012e+002
6.840330e+002, 8.134944e+002
6.845151e+002, 8.113005e+002
6.849973e+002, 8.090099e+002
6.854794e+002, 8.063251e+002
6.859615e+002, 8.037547e+002
6.864436e+002, 8.016464e+002
6.869257e+002, 7.995441e+002
6.874078e+002, 7.968463e+002
6.878900e+002, 7.931912e+002
6.883721e+002, 7.898459e+002
6.888542e+002, 7.870496e+002
6.893363e+002, 7.846426e+002
6.898184e+002, 7.825563e+002
6.903005e+002, 7.807561e+002
6.907827e+002, 7.786540e+002
6.912648e+002, 7.760131e+002
6.917469e+002, 7.729742e+002
6.922290e+002, 7.696832e+002
6.927111e+002, 7.661558e+002
6.931932e+002, 7.625898e+002
6.936754e+002, 7.593409e+002
6.941575e+002, 7.558358e+002
6.946396e+002, 7.514366e+002
6.951217e+002, 7.462655e+002
6.956038e+002, 7.417354e+002
6.960859e+002, 7.386272e+002
6.965681e+002, 7.356885e+002
6.970502e+002, 7.324075e+002
6.975323e+002, 7.287525e+002
6.980144e+002, 7.256875e+002
6.984965e+002, 7.233871e+002
6.989786e+002, 7.210699e+002
6.994608e+002, 7.177944e+002
6.999429e+002, 7.139281e+002
7.004250e+002, 7.113248e+002
7.009071e+002, 7.101224e+002
7.013892e+002, 7.093541e+002
7.018713e+002, 7.086495e+002
7.023535e+002, 7.076809e+002
7.028356e+002, 7.058681e+002
7.033177e+002, 7.027055e+002
7.037998e+002, 6.999520e+002
7.042819e+002, 6.988203e+002
7.047640e+002, 6.981577e+002
7.052462e+002, 6.966832e+002
7.057283e+002, 6.936003e+002
7.062104e+002, 6.909714e+002
7.066925e+002, 6.889694e+002
7.071746e+002, 6.873646e+002
7.076567e+002, 6.857333e+002
7.081389e+002, 6.840536e+002
7.086210e+002, 6.827764e+002
7.091031e+002, 6.819069e+002
7.095852e+002, 6.816489e+002
7.100673e+002, 6.827570e+002
7.105494e+002, 6.848145e+002
7.110316e+002, 6.865896e+002
7.115137e+002, 6.870192e+002
7.119958e+002, 6.874115e+002
7.124779e+002, 6.886338e+002
7.129600e+002, 6.905333e+002
7.134421e+002, 6.926080e+002
7.139243e+002, 6.950035e+002
7.144064e+002, 6.972783e+002
7.148885e+002, 6.991550e+002
7.153706e+002, 7.007386e+002
7.158527e+002, 7.028621e+002
7.163348e+002, 7.058027e+002
7.168170e+002, 7.084219e+002
7.172991e+002, 7.100537e+002
7.177812e+002, 7.108795e+002
7.182633e+002, 7.121280e+002
7.187454e+002, 7.137643e+002
7.192275e+002, 7.141722e+002
7.197097e+002, 7.109453e+002
7.201918e+002, 7.065520e+002
7.206739e+002, 7.041713e+002
7.211560e+002, 7.040885e+002
7.216381e+002, 7.037692e+002
7.221202e+002, 7.017487e+002
7.226024e+002, 6.992867e+002
7.230845e+002, 6.972433e+002
7.235666e+002, 6.958662e+002
7.240487e+002, 6.944031e+002
7.245308e+002, 6.930020e+002
7.250129e+002, 6.913025e+002
7.254951e+002, 6.887943e+002
7.259772e+002, 6.853786e+002
7.264593e+002, 6.827532e+002
7.269414e+002, 6.811789e+002
7.274235e+002, 6.797377e+002
7.279056e+002, 6.771842e+002
7.283878e+002, 6.739905e+002
7.288699e+002, 6.712641e+002
7.293520e+002, 6.694246e+002
7.298341e+002, 6.675007e+002
7.303162e+002, 6.644211e+002
7.307983e+002, 6.610274e+002
7.312805e+002, 6.583373e+002
7.317626e+002, 6.571926e+002
7.322447e+002, 6.560098e+002
7.327268e+002, 6.548591e+002
7.332089e+002, 6.534874e+002
7.336910e+002, 6.513992e+002
7.341732e+002, 6.484383e+002
7.346553e+002, 6.454283e+002
7.351374e+002, 6.424626e+002
7.356195e+002, 6.397147e+002
7.361016e+002, 6.376205e+002
7.365837e+002, 6.360866e+002
7.370659e+002, 6.347220e+002
7.375480e+002, 6.335518e+002
7.380301e+002, 6.322702e+002
7.385122e+002, 6.304952e+002
7.389943e+002, 6.283898e+002
7.394764e+002, 6.263971e+002
7.399586e+002, 6.245051e+002
7.404407e+002, 6.229133e+002
7.409228e+002, 6.217299e+002
7.414049e+002, 6.209051e+002
7.418870e+002, 6.203199e+002
7.423691e+002, 6.201083e+002
7.428513e+002, 6.198267e+002
7.433334e+002, 6.193939e+002
7.438155e+002, 6.187521e+002
7.442976e+002, 6.173980e+002
7.447797e+002, 6.153868e+002
7.452618e+002, 6.137285e+002
7.457440e+002, 6.134441e+002
7.462261e+002, 6.136034e+002
7.467082e+002, 6.131338e+002
7.471903e+002, 6.120460e+002
7.476724e+002, 6.107665e+002
7.481545e+002, 6.091814e+002
7.486367e+002, 6.077122e+002
7.491188e+002, 6.068412e+002
7.496009e+002, 6.067243e+002
7.500830e+002, 6.052970e+002
7.505651e+002, 6.018069e+002
7.510472e+002, 5.983302e+002
7.515294e+002, 5.961996e+002
7.520115e+002, 5.953533e+002
7.524936e+002, 5.944549e+002
7.529757e+002, 5.935026e+002
7.534578e+002, 5.924505e+002
7.539399e+002, 5.914155e+002
7.544221e+002, 5.902171e+002
7.549042e+002, 5.883463e+002
7.553863e+002, 5.856464e+002
7.558684e+002, 5.836237e+002
7.563505e+002, 5.838073e+002
7.568326e+002, 5.844598e+002
7.573148e+002, 5.841738e+002
7.577969e+002, 5.823044e+002
7.582790e+002, 5.808221e+002
7.587611e+002, 5.797264e+002
7.592432e+002, 5.789997e+002
7.597253e+002, 5.787794e+002
7.602075e+002, 5.790801e+002
7.606896e+002, 5.789273e+002
7.611717e+002, 5.781760e+002
7.616538e+002, 5.772930e+002
7.621359e+002, 5.767615e+002
7.626180e+002, 5.764456e+002
7.631002e+002, 5.761318e+002
7.635823e+002, 5.757922e+002
7.640644e+002, 5.753902e+002
7.645465e+002, 5.747742e+002
7.650286e+002, 5.741495e+002
7.655107e+002, 5.737468e+002
7.659929e+002, 5.739705e+002
7.664750e+002, 5.738450e+002
7.669571e+002, 5.732047e+002
7.674392e+002, 5.723879e+002
7.679213e+002, 5.718419e+002
7.684034e+002, 5.715806e+002
7.688856e+002, 5.711918e+002
7.693677e+002, 5.705312e+002
7.698498e+002, 5.699884e+002
7.703319e+002, 5.700879e+002
7.708140e+002, 5.706741e+002
7.712961e+002, 5.714375e+002
7.717783e+002, 5.723390e+002
7.722604e+002, 5.732780e+002
7.727425e+002, 5.748099e+002
7.732246e+002, 5.761563e+002
7.737067e+002, 5.761038e+002
7.741888e+002, 5.728860e+002
7.746710e+002, 5.707707e+002
7.751531e+002, 5.705009e+002
7.756352e+002, 5.711907e+002
7.761173e+002, 5.713010e+002
7.765994e+002, 5.708213e+002
7.770815e+002, 5.701279e+002
7.775637e+002, 5.691486e+002
7.780458e+002, 5.683376e+002
7.785279e+002, 5.686323e+002
7.790100e+002, 5.695859e+002
7.794921e+002, 5.701879e+002
7.799742e+002, 5.697997e+002
7.804564e+002, 5.692267e+002
7.809385e+002, 5.685052e+002
7.814206e+002, 5.678809e+002
7.819027e+002, 5.679440e+002
7.823848e+002, 5.692399e+002
7.828669e+002, 5.703214e+002
7.833491e+002, 5.710048e+002
7.838312e+002, 5.713109e+002
7.843133e+002, 5.711369e+002
7.847954e+002, 5.705028e+002
7.852775e+002, 5.700496e+002
7.857596e+002, 5.699749e+002
7.862418e+002, 5.702338e+002
7.867239e+002, 5.710587e+002
7.872060e+002, 5.721695e+002
7.876881e+002, 5.729005e+002
7.881702e+002, 5.728764e+002
7.886523e+002, 5.724875e+002
7.891345e+002, 5.714280e+002
7.896166e+002, 5.701177e+002
7.900987e+002, 5.697789e+002
7.905808e+002, 5.709804e+002
7.910629e+002, 5.720355e+002
7.915450e+002, 5.725466e+002
7.920272e+002, 5.726599e+002
7.925093e+002, 5.725737e+002
7.929914e+002, 5.723382e+002
7.934735e+002, 5.726205e+002
7.939556e+002, 5.741022e+002
7.944377e+002, 5.758111e+002
7.949199e+002, 5.765392e+002
7.954020e+002, 5.765605e+002
7.958841e+002, 5.765704e+002
7.963662e+002, 5.767732e+002
7.968483e+002, 5.770882e+002
7.973304e+002, 5.776461e+002
7.978126e+002, 5.783019e+002
7.982947e+002, 5.785419e+002
7.987768e+002, 5.781610e+002
7.992589e+002, 5.779447e+002
7.997410e+002, 5.781180e+002
8.002231e+002, 5.786057e+002
8.007053e+002, 5.793591e+002
8.011874e+002, 5.803063e+002
8.016695e+002, 5.810429e+002
8.021516e+002, 5.809186e+002
8.026337e+002, 5.808964e+002
8.031158e+002, 5.822004e+002
8.035980e+002, 5.843072e+002
8.040801e+002, 5.858317e+002
8.045622e+002, 5.854099e+002
8.050443e+002, 5.854276e+002
8.055264e+002, 5.867341e+002
8.060085e+002, 5.888753e+002
8.064907e+002, 5.903619e+002
8.069728e+002, 5.910762e+002
8.074549e+002, 5.917554e+002
8.079370e+002, 5.927164e+002
8.084191e+002, 5.937188e+002
8.089012e+002, 5.941434e+002
8.093834e+002, 5.941494e+002
8.098655e+002, 5.943076e+002
8.103476e+002, 5.951111e+002
8.108297e+002, 5.959583e+002
8.113118e+002, 5.964473e+002
8.117939e+002, 5.966845e+002
8.122761e+002, 5.969763e+002
8.127582e+002, 5.972679e+002
8.132403e+002, 5.978191e+002
8.137224e+002, 5.989975e+002
8.142045e+002, 6.003287e+002
8.146866e+002, 6.000514e+002
8.151688e+002, 5.981440e+002
8.156509e+002, 5.968564e+002
8.161330e+002, 5.971695e+002
8.166151e+002, 5.983354e+002
8.170972e+002, 5.994912e+002
8.175793e+002, 6.006111e+002
8.180615e+002, 6.016663e+002
8.185436e+002, 6.024705e+002
8.190257e+002, 6.033718e+002
8.195078e+002, 6.045904e+002
8.199899e+002, 6.059935e+002
8.204720e+002, 6.072050e+002
8.209542e+002, 6.081477e+002
8.214363e+002, 6.090450e+002
8.219184e+002, 6.099476e+002
8.224005e+002, 6.108304e+002
8.228826e+002, 6.116425e+002
8.233647e+002, 6.123966e+002
8.238469e+002, 6.131026e+002
8.243290e+002, 6.136931e+002
8.248111e+002, 6.143602e+002
8.252932e+002, 6.151400e+002
8.257753e+002, 6.161649e+002
8.262574e+002, 6.176564e+002
8.267396e+002, 6.206229e+002
8.272217e+002, 6.228802e+002
8.277038e+002, 6.235886e+002
8.281859e+002, 6.236614e+002
8.286681e+002, 6.250113e+002
8.291502e+002, 6.278758e+002
8.296323e+002, 6.302244e+002
8.301144e+002, 6.315020e+002
8.305966e+002, 6.322322e+002
8.310787e+002, 6.329901e+002
8.315608e+002, 6.338714e+002
8.320429e+002, 6.351766e+002
8.325250e+002, 6.373781e+002
8.330071e+002, 6.393986e+002
8.334893e+002, 6.403434e+002
8.339714e+002, 6.408817e+002
8.344535e+002, 6.421638e+002
8.349356e+002, 6.449835e+002
8.354177e+002, 6.469662e+002
8.358998e+002, 6.474083e+002
8.363820e+002, 6.476258e+002
8.368641e+002, 6.500648e+002
8.373462e+002, 6.543802e+002
8.378283e+002, 6.575501e+002
8.383104e+002, 6.587234e+002
8.387925e+002, 6.593170e+002
8.392747e+002, 6.604110e+002
8.397568e+002, 6.619150e+002
8.402389e+002, 6.637621e+002
8.407210e+002, 6.663702e+002
8.412031e+002, 6.685193e+002
8.416852e+002, 6.697010e+002
8.421674e+002, 6.705014e+002
8.426495e+002, 6.713669e+002
8.431316e+002, 6.722468e+002
8.436137e+002, 6.736110e+002
8.440958e+002, 6.756093e+002
8.445779e+002, 6.777278e+002
8.450601e+002, 6.794994e+002
8.455422e+002, 6.809279e+002
8.460243e+002, 6.819466e+002
8.465064e+002, 6.824534e+002
8.469885e+002, 6.831046e+002
8.474706e+002, 6.841559e+002
8.479528e+002, 6.855817e+002
8.484349e+002, 6.874311e+002
8.489170e+002, 6.899293e+002
8.493991e+002, 6.921351e+002
8.498812e+002, 6.940086e+002
8.503633e+002, 6.956647e+002
8.508455e+002, 6.974840e+002
8.513276e+002, 6.992770e+002
8.518097e+002, 6.997447e+002
8.522918e+002, 6.988214e+002
8.527739e+002, 6.968568e+002
8.532560e+002, 6.936047e+002
8.537382e+002, 6.897988e+002
8.542203e+002, 6.860466e+002
8.547024e+002, 6.824284e+002
8.551845e+002, 6.788419e+002
8.556666e+002, 6.753864e+002
8.561487e+002, 6.718826e+002
8.566309e+002, 6.681181e+002
8.571130e+002, 6.641635e+002
8.575951e+002, 6.607679e+002
8.580772e+002, 6.579274e+002
8.585593e+002, 6.555538e+002
8.590414e+002, 6.540245e+002
8.595236e+002, 6.526608e+002
8.600057e+002, 6.500646e+002
8.604878e+002, 6.464520e+002
8.609699e+002, 6.434954e+002
8.614520e+002, 6.418817e+002
8.619341e+002, 6.411325e+002
8.624163e+002, 6.413140e+002
8.628984e+002, 6.422599e+002
8.633805e+002, 6.430870e+002
8.638626e+002, 6.438617e+002
8.643447e+002, 6.442926e+002
8.648268e+002, 6.440836e+002
8.653090e+002, 6.436007e+002
8.657911e+002, 6.438605e+002
8.662732e+002, 6.446943e+002
8.667553e+002, 6.454044e+002
8.672374e+002, 6.461191e+002
8.677195e+002, 6.461232e+002
8.682017e+002, 6.445081e+002
8.686838e+002, 6.418200e+002
8.691659e+002, 6.397374e+002
8.696480e+002, 6.391740e+002
8.701301e+002, 6.377356e+002
8.706122e+002, 6.347292e+002
8.710944e+002, 6.308997e+002
8.715765e+002, 6.278234e+002
8.720586e+002, 6.254222e+002
8.725407e+002, 6.230591e+002
8.730228e+002, 6.205357e+002
8.735049e+002, 6.180530e+002
8.739871e+002, 6.159351e+002
8.744692e+002, 6.139366e+002
8.749513e+002, 6.116652e+002
8.754334e+002, 6.085638e+002
8.759155e+002, 6.058182e+002
8.763976e+002, 6.034617e+002
8.768798e+002, 6.015272e+002
8.773619e+002, 6.002594e+002
8.778440e+002, 5.997361e+002
8.783261e+002, 5.983262e+002
8.788082e+002, 5.956851e+002
8.792903e+002, 5.929086e+002
8.797725e+002, 5.910108e+002
8.802546e+002, 5.897578e+002
8.807367e+002, 5.888651e+002
8.812188e+002, 5.883183e+002
8.817009e+002, 5.878944e+002
8.821830e+002, 5.876459e+002
8.826652e+002, 5.873716e+002
8.831473e+002, 5.868079e+002
8.836294e+002, 5.857609e+002
8.841115e+002, 5.858785e+002
8.845936e+002, 5.874151e+002
8.850757e+002, 5.888974e+002
8.855579e+002, 5.890692e+002
8.860400e+002, 5.884366e+002
8.865221e+002, 5.879300e+002
8.870042e+002, 5.876033e+002
8.874863e+002, 5.873867e+002
8.879684e+002, 5.871710e+002
8.884506e+002, 5.871354e+002
8.889327e+002, 5.874965e+002
8.894148e+002, 5.882160e+002
8.898969e+002, 5.886357e+002
8.903790e+002, 5.885680e+002
8.908611e+002, 5.887565e+002
8.913433e+002, 5.895702e+002
8.918254e+002, 5.908026e+002
8.923075e+002, 5.920600e+002
8.927896e+002, 5.933015e+002
8.932717e+002, 5.943452e+002
8.937538e+002, 5.943276e+002
8.942360e+002, 5.948577e+002
8.947181e+002, 5.974775e+002
8.952002e+002, 6.013214e+002
8.956823e+002, 6.040129e+002
8.961644e+002, 6.045510e+002
8.966465e+002, 6.057961e+002
8.971287e+002, 6.084857e+002
8.976108e+002, 6.116793e+002
8.980929e+002, 6.133406e+002
8.985750e+002, 6.138589e+002
8.990571e+002, 6.150614e+002
8.995392e+002, 6.175331e+002
9.000214e+002, 6.205115e+002
9.005035e+002, 6.240165e+002
9.009856e+002, 6.274161e+002
9.014677e+002, 6.299922e+002
9.019498e+002, 6.306783e+002
9.024319e+002, 6.321116e+002
9.029141e+002, 6.345096e+002
9.033962e+002, 6.373858e+002
9.038783e+002, 6.405459e+002
9.043604e+002, 6.439036e+002
9.048425e+002, 6.466483e+002
9.053246e+002, 6.487407e+002
9.058068e+002, 6.506249e+002
9.062889e+002, 6.526900e+002
9.067710e+002, 6.547338e+002
9.072531e+002, 6.567363e+002
9.077352e+002, 6.587150e+002
9.082173e+002, 6.599163e+002
9.086995e+002, 6.599072e+002
9.091816e+002, 6.596042e+002
9.096637e+002, 6.594277e+002
9.101458e+002, 6.593012e+002
9.106279e+002, 6.587764e+002
9.111100e+002, 6.578479e+002
9.115922e+002, 6.563690e+002
9.120743e+002, 6.538004e+002
9.125564e+002, 6.509817e+002
9.130385e+002, 6.489520e+002
9.135206e+002, 6.474095e+002
9.140027e+002, 6.453600e+002
9.144849e+002, 6.418497e+002
9.149670e+002, 6.387059e+002
9.154491e+002, 6.365322e+002
9.159312e+002, 6.347233e+002
9.164133e+002, 6.318164e+002
9.168954e+002, 6.278280e+002
9.173776e+002, 6.243942e+002
9.178597e+002, 6.220494e+002
9.183418e+002, 6.198643e+002
9.188239e+002, 6.167209e+002
9.193060e+002, 6.131165e+002
9.197881e+002, 6.096935e+002
9.202703e+002, 6.062928e+002
9.207524e+002, 6.037754e+002
9.212345e+002, 6.028560e+002
9.217166e+002, 6.021865e+002
9.221987e+002, 6.005656e+002
9.226808e+002, 5.979415e+002
9.231630e+002, 5.957994e+002
9.236451e+002, 5.942064e+002
9.241272e+002, 5.928100e+002
9.246093e+002, 5.914388e+002
9.250914e+002, 5.900107e+002
9.255735e+002, 5.882122e+002
9.260557e+002, 5.860661e+002
9.265378e+002, 5.846067e+002
9.270199e+002, 5.849288e+002
9.275020e+002, 5.850925e+002
9.279841e+002, 5.841640e+002
9.284662e+002, 5.824796e+002
9.289484e+002, 5.822667e+002
9.294305e+002, 5.835062e+002
9.299126e+002, 5.846066e+002
9.303947e+002, 5.847921e+002
9.308768e+002, 5.844902e+002
9.313589e+002, 5.838803e+002
9.318411e+002, 5.831960e+002
9.323232e+002, 5.829623e+002
9.328053e+002, 5.837625e+002
9.332874e+002, 5.844830e+002
9.337695e+002, 5.847819e+002
9.342516e+002, 5.850668e+002
9.347338e+002, 5.859761e+002
9.352159e+002, 5.875163e+002
9.356980e+002, 5.891443e+002
9.361801e+002, 5.907653e+002
9.366622e+002, 5.925133e+002
9.371443e+002, 5.945248e+002
9.376265e+002, 5.967407e+002
9.381086e+002, 5.991205e+002
9.385907e+002, 6.017831e+002
9.390728e+002, 6.041386e+002
9.395549e+002, 6.059509e+002
9.400370e+002, 6.075673e+002
9.405192e+002, 6.090012e+002
9.410013e+002, 6.102906e+002
9.414834e+002, 6.124506e+002
9.419655e+002, 6.154777e+002
9.424476e+002, 6.184135e+002
9.429297e+002, 6.202230e+002
9.434119e+002, 6.219496e+002
9.438940e+002, 6.249351e+002
9.443761e+002, 6.288369e+002
9.448582e+002, 6.319940e+002
9.453403e+002, 6.333366e+002
9.458224e+002, 6.348839e+002
9.463046e+002, 6.372413e+002
9.467867e+002, 6.398697e+002
9.472688e+002, 6.415446e+002
9.477509e+002, 6.423105e+002
9.482330e+002, 6.423846e+002
9.487151e+002, 6.417571e+002
9.491973e+002, 6.406674e+002
9.496794e+002, 6.393226e+002
9.501615e+002, 6.376547e+002
9.506436e+002, 6.355522e+002
9.511257e+002, 6.327898e+002
9.516078e+002, 6.300332e+002
9.520900e+002, 6.273203e+002
9.525721e+002, 6.245818e+002
9.530542e+002, 6.218553e+002
9.535363e+002, 6.190782e+002
9.540184e+002, 6.155803e+002
9.545005e+002, 6.114064e+002
9.549827e+002, 6.077391e+002
9.554648e+002, 6.057553e+002
9.559469e+002, 6.043011e+002
9.564290e+002, 6.026995e+002
9.569111e+002, 6.008673e+002
9.573932e+002, 5.986104e+002
9.578754e+002, 5.954479e+002
9.583575e+002, 5.929152e+002
9.588396e+002, 5.916317e+002
9.593217e+002, 5.911331e+002
9.598038e+002, 5.906159e+002
9.602859e+002, 5.899879e+002
9.607681e+002, 5.889117e+002
9.612502e+002, 5.870626e+002
9.617323e+002, 5.850613e+002
9.622144e+002, 5.828906e+002
9.626965e+002, 5.809568e+002
9.631786e+002, 5.798172e+002
9.636608e+002, 5.797099e+002
9.641429e+002, 5.799534e+002
9.646250e+002, 5.808158e+002
9.651071e+002, 5.811164e+002
9.655892e+002, 5.790973e+002
9.660714e+002, 5.758063e+002
9.665535e+002, 5.733312e+002
9.670356e+002, 5.718676e+002
9.675177e+002, 5.709747e+002
9.679998e+002, 5.709381e+002
9.684819e+002, 5.709440e+002
9.689641e+002, 5.704538e+002
9.694462e+002, 5.695715e+002
9.699283e+002, 5.691074e+002
9.704104e+002, 5.691076e+002
9.708925e+002, 5.691459e+002
9.713746e+002, 5.691025e+002
9.718568e+002, 5.689261e+002
9.723389e+002, 5.682346e+002
9.728210e+002, 5.673818e+002
9.733031e+002, 5.671246e+002
9.737852e+002, 5.685865e+002
9.742673e+002, 5.694821e+002
9.747495e+002, 5.690462e+002
9.752316e+002, 5.681497e+002
9.757137e+002, 5.677259e+002
9.761958e+002, 5.677997e+002
9.766779e+002, 5.675988e+002
9.771600e+002, 5.670453e+002
9.776422e+002, 5.664970e+002
9.781243e+002, 5.662625e+002
9.786064e+002, 5.662009e+002
9.790885e+002, 5.661877e+002
9.795706e+002, 5.662141e+002
9.800527e+002, 5.662435e+002
9.805349e+002, 5.664129e+002
9.810170e+002, 5.663493e+002
9.814991e+002, 5.657767e+002
9.819812e+002, 5.649405e+002
9.824633e+002, 5.647080e+002
9.829454e+002, 5.650167e+002
9.834276e+002, 5.655319e+002
9.839097e+002, 5.664000e+002
9.843918e+002, 5.670113e+002
9.848739e+002, 5.667596e+002
9.853560e+002, 5.660361e+002
9.858381e+002, 5.653976e+002
9.863203e+002, 5.645189e+002
9.868024e+002, 5.647338e+002
9.872845e+002, 5.665230e+002
9.877666e+002, 5.683340e+002
9.882487e+002, 5.682853e+002
9.887308e+002, 5.670477e+002
9.892130e+002, 5.663817e+002
9.896951e+002, 5.664231e+002
9.901772e+002, 5.664320e+002
9.906593e+002, 5.658535e+002
9.911414e+002, 5.652769e+002
9.916235e+002, 5.650400e+002
9.921057e+002, 5.650850e+002
9.925878e+002, 5.650240e+002
9.930699e+002, 5.647819e+002
9.935520e+002, 5.650497e+002
9.940341e+002, 5.664586e+002
9.945162e+002, 5.678481e+002
9.949984e+002, 5.671627e+002
9.954805e+002, 5.653055e+002
9.959626e+002, 5.640046e+002
9.964447e+002, 5.642826e+002
9.969268e+002, 5.642979e+002
9.974089e+002, 5.633909e+002
9.978911e+002, 5.625573e+002
9.983732e+002, 5.630175e+002
9.988553e+002, 5.646987e+002
9.993374e+002, 5.649420e+002
9.998195e+002, 5.636290e+002
1.000302e+003, 5.624238e+002
1.000784e+003, 5.628158e+002
1.001266e+003, 5.636561e+002
1.001748e+003, 5.640894e+002
1.002230e+003, 5.640721e+002
1.002712e+003, 5.637484e+002
1.003194e+003, 5.627645e+002
1.003676e+003, 5.623439e+002
1.004159e+003, 5.630348e+002
1.004641e+003, 5.641302e+002
1.005123e+003, 5.641752e+002
1.005605e+003, 5.634188e+002
1.006087e+003, 5.625849e+002
1.006569e+003, 5.617542e+002
1.007051e+003, 5.612171e+002
1.007533e+003, 5.615892e+002
1.008016e+003, 5.619794e+002
1.008498e+003, 5.614858e+002
1.008980e+003, 5.598302e+002
1.009462e+003, 5.590058e+002
1.009944e+003, 5.590995e+002
1.010426e+003, 5.593757e+002
1.010908e+003, 5.591819e+002
1.011390e+003, 5.589091e+002
1.011872e+003, 5.590816e+002
1.012355e+003, 5.596486e+002
1.012837e+003, 5.603342e+002
1.013319e+003, 5.617100e+002
1.013801e+003, 5.622445e+002
1.014283e+003, 5.612311e+002
1.014765e+003, 5.595965e+002
1.015247e+003, 5.591599e+002
1.015729e+003, 5.597533e+002
1.016211e+003, 5.601188e+002
1.016694e+003, 5.599686e+002
1.017176e+003, 5.597714e+002
1.017658e+003, 5.600258e+002
1.018140e+003, 5.603410e+002
1.018622e+003, 5.603409e+002
1.019104e+003, 5.599512e+002
1.019586e+003, 5.595534e+002
1.020068e+003, 5.590640e+002
1.020551e+003, 5.588880e+002
1.021033e+003, 5.594806e+002
1.021515e+003, 5.603878e+002
1.021997e+003, 5.605359e+002
1.022479e+003, 5.601270e+002
1.022961e+003, 5.597537e+002
1.023443e+003, 5.593829e+002
1.023925e+003, 5.594363e+002
1.024407e+003, 5.602904e+002
1.024890e+003, 5.614417e+002
1.025372e+003, 5.622905e+002
1.025854e+003, 5.628184e+002
1.026336e+003, 5.634186e+002
1.026818e+003, 5.641630e+002
1.027300e+003, 5.645575e+002
1.027782e+003, 5.638827e+002
1.028264e+003, 5.628521e+002
1.028746e+003, 5.620467e+002
1.029229e+003, 5.615352e+002
1.029711e+003, 5.614397e+002
1.030193e+003, 5.619963e+002
1.030675e+003, 5.623831e+002
1.031157e+003, 5.621816e+002
1.031639e+003, 5.618109e+002
1.032121e+003, 5.625856e+002
1.032603e+003, 5.640252e+002
1.033086e+003, 5.644967e+002
1.033568e+003, 5.628407e+002
1.034050e+003, 5.615735e+002
1.034532e+003, 5.622985e+002
1.035014e+003, 5.636014e+002
1.035496e+003, 5.642371e+002
1.035978e+003, 5.641125e+002
1.036460e+003, 5.638847e+002
1.036943e+003, 5.635373e+002
1.037425e+003, 5.634282e+002
1.037907e+003, 5.639883e+002
1.038389e+003, 5.647976e+002
1.038871e+003, 5.653911e+002
1.039353e+003, 5.658222e+002
1.039835e+003, 5.663280e+002
1.040317e+003, 5.666356e+002
1.040799e+003, 5.676525e+002
1.041281e+003, 5.699138e+002
1.041764e+003, 5.723141e+002
1.042246e+003, 5.727563e+002
1.042728e+003, 5.718695e+002
1.043210e+003, 5.717693e+002
1.043692e+003, 5.729179e+002
1.044174e+003, 5.740259e+002
1.044656e+003, 5.740643e+002
1.045138e+003, 5.740995e+002
1.045621e+003, 5.748483e+002
1.046103e+003, 5.762570e+002
1.046585e+003, 5.776379e+002
1.047067e+003, 5.789772e+002
1.047549e+003, 5.804199e+002
1.048031e+003, 5.820278e+002
1.048513e+003, 5.837477e+002
1.048995e+003, 5.856347e+002
1.049478e+003, 5.875290e+002
1.049960e+003, 5.891579e+002
1.050442e+003, 5.899025e+002
1.050924e+003, 5.912052e+002
1.051406e+003, 5.930689e+002
1.051888e+003, 5.955579e+002
1.052370e+003, 5.988738e+002
1.052852e+003, 6.028836e+002
1.053334e+003, 6.072542e+002
1.053817e+003, 6.119337e+002
1.054299e+003, 6.165867e+002
1.054781e+003, 6.207302e+002
1.055263e+003, 6.251335e+002
1.055745e+003, 6.304438e+002
1.056227e+003, 6.362221e+002
1.056709e+003, 6.413331e+002
1.057191e+003, 6.457128e+002
1.057673e+003, 6.506229e+002
1.058156e+003, 6.563635e+002
1.058638e+003, 6.625853e+002
1.059120e+003, 6.691755e+002
1.059602e+003, 6.759827e+002
1.060084e+003, 6.828547e+002
1.060566e+003, 6.897955e+002
1.061048e+003, 6.966856e+002
1.061530e+003, 7.032175e+002
1.062013e+003, 7.105287e+002
1.062495e+003, 7.195099e+002
1.062977e+003, 7.293665e+002
1.063459e+003, 7.383791e+002
1.063941e+003, 7.467395e+002
1.064423e+003, 7.552783e+002
1.064905e+003, 7.657621e+002
1.065387e+003, 7.744453e+002
1.065870e+003, 7.806951e+002
1.066352e+003, 7.840508e+002
1.066834e+003, 7.836115e+002
1.067316e+003, 7.793680e+002
1.067798e+003, 7.735957e+002
1.068280e+003, 7.663391e+002
1.068762e+003, 7.577513e+002
1.069244e+003, 7.465355e+002
1.069726e+003, 7.350767e+002
1.070208e+003, 7.252916e+002
1.070691e+003, 7.170584e+002
1.071173e+003, 7.096042e+002
1.071655e+003, 7.022164e+002
1.072137e+003, 6.975991e+002
1.072619e+003, 6.964160e+002
1.073101e+003, 6.975244e+002
1.073583e+003, 6.997119e+002
1.074065e+003, 7.029701e+002
1.074548e+003, 7.074065e+002
1.075030e+003, 7.130470e+002
1.075512e+003, 7.194561e+002
1.075994e+003, 7.267568e+002
1.076476e+003, 7.344722e+002
1.076958e+003, 7.425199e+002
1.077440e+003, 7.507416e+002
1.077922e+003, 7.589092e+002
1.078405e+003, 7.668146e+002
1.078887e+003, 7.735525e+002
1.079369e+003, 7.797877e+002
1.079851e+003, 7.830978e+002
1.080333e+003, 7.831711e+002
1.080815e+003, 7.786708e+002
1.081297e+003, 7.686573e+002
1.081779e+003, 7.526786e+002
1.082261e+003, 7.332203e+002
1.082744e+003, 7.098964e+002
1.083226e+003, 6.859528e+002
1.083708e+003, 6.617621e+002
1.084190e+003, 6.396266e+002
1.084672e+003, 6.221416e+002
1.085154e+003, 6.087935e+002
1.085636e+003, 5.978817e+002
1.086118e+003, 5.892994e+002
1.086601e+003, 5.826321e+002
1.087083e+003, 5.781276e+002
1.087565e+003, 5.748294e+002
1.088047e+003, 5.712723e+002
1.088529e+003, 5.680988e+002
1.089011e+003, 5.669534e+002
1.089493e+003, 5.680040e+002
1.089975e+003, 5.689196e+002
1.090458e+003, 5.689400e+002
1.090940e+003, 5.683448e+002
1.091422e+003, 5.669615e+002
1.091904e+003, 5.652150e+002
1.092386e+003, 5.646885e+002
1.092868e+003, 5.651456e+002
1.093350e+003, 5.650131e+002
1.093832e+003, 5.635771e+002
1.094314e+003, 5.623034e+002
1.094797e+003, 5.623256e+002
1.095279e+003, 5.629060e+002
1.095761e+003, 5.634373e+002
1.096243e+003, 5.639026e+002
1.096725e+003, 5.641757e+002
1.097207e+003, 5.642604e+002
1.097689e+003, 5.641646e+002
1.098171e+003, 5.637755e+002
1.098653e+003, 5.633314e+002
1.099136e+003, 5.630766e+002
1.099618e+003, 5.629725e+002
1.100100e+003, 5.629348e+002
1.100582e+003, 5.628584e+002
1.101064e+003, 5.630958e+002
1.101546e+003, 5.638773e+002
1.102028e+003, 5.643841e+002
1.102510e+003, 5.633251e+002
1.102993e+003, 5.616237e+002
1.103475e+003, 5.615208e+002
1.103957e+003, 5.628287e+002
1.104439e+003, 5.638522e+002
1.104921e+003, 5.637057e+002
1.105403e+003, 5.633588e+002
1.105885e+003, 5.627542e+002
1.106367e+003, 5.624131e+002
1.106849e+003, 5.636815e+002
1.107332e+003, 5.661556e+002
1.107814e+003, 5.675186e+002
1.108296e+003, 5.673598e+002
1.108778e+003, 5.671709e+002
1.109260e+003, 5.680314e+002
1.109742e+003, 5.690665e+002
1.110224e+003, 5.696669e+002
1.110706e+003, 5.699370e+002
1.111188e+003, 5.705729e+002
1.111671e+003, 5.715844e+002
1.112153e+003, 5.724677e+002
1.112635e+003, 5.730234e+002
1.113117e+003, 5.734980e+002
1.113599e+003, 5.740580e+002
1.114081e+003, 5.747210e+002
1.114563e+003, 5.755013e+002
1.115045e+003, 5.764082e+002
1.115528e+003, 5.773944e+002
1.116010e+003, 5.784696e+002
1.116492e+003, 5.796377e+002
1.116974e+003, 5.811251e+002
1.117456e+003, 5.825209e+002
1.117938e+003, 5.828928e+002
1.118420e+003, 5.827041e+002
1.118902e+003, 5.829397e+002
1.119385e+003, 5.841908e+002
1.119867e+003, 5.855621e+002
1.120349e+003, 5.873427e+002
1.120831e+003, 5.885914e+002
1.121313e+003, 5.878765e+002
1.121795e+003, 5.860374e+002
1.122277e+003, 5.857828e+002
1.122759e+003, 5.868890e+002
1.123241e+003, 5.875568e+002
1.123724e+003, 5.866788e+002
1.124206e+003, 5.855318e+002
1.124688e+003, 5.843349e+002
1.125170e+003, 5.832209e+002
1.125652e+003, 5.824921e+002
1.126134e+003, 5.820739e+002
1.126616e+003, 5.814872e+002
1.127098e+003, 5.806711e+002
1.127580e+003, 5.797783e+002
1.128063e+003, 5.788963e+002
1.128545e+003, 5.779803e+002
1.129027e+003, 5.768612e+002
1.129509e+003, 5.757118e+002
1.129991e+003, 5.753209e+002
1.130473e+003, 5.757162e+002
1.130955e+003, 5.757635e+002
1.131437e+003, 5.750631e+002
1.131920e+003, 5.744011e+002
1.132402e+003, 5.749221e+002
1.132884e+003, 5.755754e+002
1.133366e+003, 5.750880e+002
1.133848e+003, 5.732727e+002
1.134330e+003, 5.724085e+002
1.134812e+003, 5.726396e+002
1.135294e+003, 5.730350e+002
1.135776e+003, 5.732690e+002
1.136259e+003, 5.733303e+002
1.136741e+003, 5.730018e+002
1.137223e+003, 5.725577e+002
1.137705e+003, 5.724669e+002
1.138187e+003, 5.732130e+002
1.138669e+003, 5.733716e+002
1.139151e+003, 5.727944e+002
1.139633e+003, 5.719660e+002
1.140115e+003, 5.710681e+002
1.140598e+003, 5.702218e+002
1.141080e+003, 5.697499e+002
1.141562e+003, 5.695432e+002
1.142044e+003, 5.692811e+002
1.142526e+003, 5.688940e+002
1.143008e+003, 5.684077e+002
1.143490e+003, 5.679457e+002
1.143972e+003, 5.672333e+002
1.144455e+003, 5.656395e+002
1.144937e+003, 5.636122e+002
1.145419e+003, 5.628670e+002
1.145901e+003, 5.632855e+002
1.146383e+003, 5.634398e+002
1.146865e+003, 5.625250e+002
1.147347e+003, 5.613179e+002
1.147829e+003, 5.597929e+002
1.148312e+003, 5.583681e+002
1.148794e+003, 5.577333e+002
1.149276e+003, 5.578044e+002
1.149758e+003, 5.581951e+002
1.150240e+003, 5.588643e+002
1.150722e+003, 5.592662e+002
1.151204e+003, 5.590872e+002
1.151686e+003, 5.584728e+002
1.152168e+003, 5.571290e+002
1.152651e+003, 5.555245e+002
1.153133e+003, 5.552027e+002
1.153615e+003, 5.560981e+002
1.154097e+003, 5.567328e+002
1.154579e+003, 5.568131e+002
1.155061e+003, 5.563225e+002
1.155543e+003, 5.544386e+002
1.156025e+003, 5.526022e+002
1.156507e+003, 5.522031e+002
1.156990e+003, 5.530914e+002
1.157472e+003, 5.540602e+002
1.157954e+003, 5.551443e+002
1.158436e+003, 5.557922e+002
1.158918e+003, 5.557042e+002
1.159400e+003, 5.554053e+002
1.159882e+003, 5.554506e+002
1.160364e+003, 5.555712e+002
1.160847e+003, 5.553943e+002
1.161329e+003, 5.548071e+002
1.161811e+003, 5.545685e+002
1.162293e+003, 5.547555e+002
1.162775e+003, 5.547979e+002
1.163257e+003, 5.542155e+002
1.163739e+003, 5.535603e+002
1.164221e+003, 5.535690e+002
1.164703e+003, 5.539685e+002
1.165186e+003, 5.543181e+002
1.165668e+003, 5.545904e+002
1.166150e+003, 5.546417e+002
1.166632e+003, 5.544334e+002
1.167114e+003, 5.541342e+002
1.167596e+003, 5.537332e+002
1.168078e+003, 5.534017e+002
1.168560e+003, 5.535499e+002
1.169042e+003, 5.540006e+002
1.169525e+003, 5.542813e+002
1.170007e+003, 5.543629e+002
1.170489e+003, 5.540789e+002
1.170971e+003, 5.533455e+002
1.171453e+003, 5.524479e+002
1.171935e+003, 5.513115e+002
1.172417e+003, 5.503519e+002
1.172899e+003, 5.505479e+002
1.173382e+003, 5.517391e+002
1.173864e+003, 5.529550e+002
1.174346e+003, 5.545514e+002
1.174828e+003, 5.550758e+002
1.175310e+003, 5.540479e+002
1.175792e+003, 5.524182e+002
1.176274e+003, 5.510771e+002
1.176756e+003, 5.501613e+002
1.177239e+003, 5.500056e+002
1.177721e+003, 5.506102e+002
1.178203e+003, 5.515638e+002
1.178685e+003, 5.532635e+002
1.179167e+003, 5.545551e+002
1.179649e+003, 5.552154e+002
1.180131e+003, 5.552741e+002
1.180613e+003, 5.543400e+002
1.181095e+003, 5.529000e+002
1.181578e+003, 5.526150e+002
1.182060e+003, 5.537962e+002
1.182542e+003, 5.545704e+002
1.183024e+003, 5.536166e+002
1.183506e+003, 5.526817e+002
1.183988e+003, 5.523276e+002
1.184470e+003, 5.524625e+002
1.184952e+003, 5.531595e+002
1.185434e+003, 5.541572e+002
1.185917e+003, 5.544216e+002
1.186399e+003, 5.535577e+002
1.186881e+003, 5.527916e+002
1.187363e+003, 5.525324e+002
1.187845e+003, 5.527667e+002
1.188327e+003, 5.537273e+002
1.188809e+003, 5.550464e+002
1.189291e+003, 5.550540e+002
1.189774e+003, 5.540865e+002
1.190256e+003, 5.538455e+002
1.190738e+003, 5.552490e+002
1.191220e+003, 5.563390e+002
1.191702e+003, 5.560267e+002
1.192184e+003, 5.551625e+002
1.192666e+003, 5.540945e+002
1.193148e+003, 5.529431e+002
1.193630e+003, 5.525784e+002
1.194113e+003, 5.529173e+002
1.194595e+003, 5.535536e+002
1.195077e+003, 5.549007e+002
1.195559e+003, 5.554193e+002
1.196041e+003, 5.531732e+002
1.196523e+003, 5.507891e+002
1.197005e+003, 5.505002e+002
1.197487e+003, 5.521495e+002
1.197969e+003, 5.530193e+002
1.198452e+003, 5.531804e+002
1.198934e+003, 5.532146e+002
1.199416e+003, 5.534475e+002
1.199898e+003, 5.535919e+002
1.200380e+003, 5.532929e+002
1.200862e+003, 5.530041e+002
1.201344e+003, 5.533626e+002
1.201826e+003, 5.543668e+002
1.202309e+003, 5.540764e+002
1.202791e+003, 5.526108e+002
1.203273e+003, 5.514833e+002
1.203755e+003, 5.519130e+002
1.204237e+003, 5.525093e+002
1.204719e+003, 5.526868e+002
1.205201e+003, 5.525565e+002
1.205683e+003, 5.520336e+002
1.206166e+003, 5.511429e+002
1.206648e+003, 5.514258e+002
1.207130e+003, 5.528489e+002
1.207612e+003, 5.539146e+002
1.208094e+003, 5.532656e+002
1.208576e+003, 5.524148e+002
1.209058e+003, 5.520861e+002
1.209540e+003, 5.521073e+002
1.210022e+003, 5.523567e+002
1.210505e+003, 5.528195e+002
1.210987e+003, 5.528392e+002
1.211469e+003, 5.523865e+002
1.211951e+003, 5.520959e+002
1.212433e+003, 5.528917e+002
1.212915e+003, 5.534364e+002
1.213397e+003, 5.525563e+002
1.213879e+003, 5.511668e+002
1.214361e+003, 5.509511e+002
1.214844e+003, 5.518104e+002
1.215326e+003, 5.519954e+002
1.215808e+003, 5.513027e+002
1.216290e+003, 5.509036e+002
1.216772e+003, 5.520939e+002
1.217254e+003, 5.532664e+002
1.217736e+003, 5.535361e+002
1.218218e+003, 5.531883e+002
1.218701e+003, 5.526607e+002
1.219183e+003, 5.519846e+002
1.219665e+003, 5.515690e+002
1.220147e+003, 5.514847e+002
1.220629e+003, 5.514432e+002
1.221111e+003, 5.510558e+002
1.221593e+003, 5.508817e+002
1.222075e+003, 5.513287e+002
1.222557e+003, 5.521301e+002
1.223040e+003, 5.526935e+002
1.223522e+003, 5.530169e+002
1.224004e+003, 5.530555e+002
1.224486e+003, 5.527996e+002
1.224968e+003, 5.523383e+002
1.225450e+003, 5.514529e+002
1.225932e+003, 5.506771e+002
1.226414e+003, 5.502126e+002
1.226896e+003, 5.500823e+002
1.227379e+003, 5.505316e+002
1.227861e+003, 5.514231e+002
1.228343e+003, 5.519890e+002
1.228825e+003, 5.520201e+002
1.229307e+003, 5.519886e+002
1.229789e+003, 5.523889e+002
1.230271e+003, 5.524863e+002
1.230753e+003, 5.517156e+002
1.231236e+003, 5.504908e+002
1.231718e+003, 5.503932e+002
1.232200e+003, 5.511120e+002
1.232682e+003, 5.513575e+002
1.233164e+003, 5.506984e+002
1.233646e+003, 5.500742e+002
1.234128e+003, 5.501182e+002
1.234610e+003, 5.500955e+002
1.235093e+003, 5.496021e+002
1.235575e+003, 5.488430e+002
1.236057e+003, 5.484469e+002
1.236539e+003, 5.483622e+002
1.237021e+003, 5.484382e+002
1.237503e+003, 5.486713e+002
1.237985e+003, 5.489321e+002
1.238467e+003, 5.493760e+002
1.238949e+003, 5.495652e+002
1.239432e+003, 5.492169e+002
1.239914e+003, 5.485245e+002
1.240396e+003, 5.480158e+002
1.240878e+003, 5.476634e+002
1.241360e+003, 5.474064e+002
1.241842e+003, 5.472048e+002
1.242324e+003, 5.471705e+002
1.242806e+003, 5.474969e+002
1.243288e+003, 5.476933e+002
1.243771e+003, 5.474456e+002
1.244253e+003, 5.469632e+002
1.244735e+003, 5.467365e+002
1.245217e+003, 5.467120e+002
1.245699e+003, 5.467533e+002
1.246181e+003, 5.467997e+002
1.246663e+003, 5.470324e+002
1.247145e+003, 5.476639e+002
1.247628e+003, 5.480289e+002
1.248110e+003, 5.475854e+002
1.248592e+003, 5.468231e+002
1.249074e+003, 5.468707e+002
1.249556e+003, 5.473664e+002
1.250038e+003, 5.475674e+002
1.250520e+003, 5.469889e+002
1.251002e+003, 5.470167e+002
1.251484e+003, 5.480544e+002
1.251967e+003, 5.485728e+002
1.252449e+003, 5.472772e+002
1.252931e+003, 5.453786e+002
1.253413e+003, 5.447182e+002
1.253895e+003, 5.448787e+002
1.254377e+003, 5.451329e+002
1.254859e+003, 5.451917e+002
1.255341e+003, 5.459678e+002
1.255823e+003, 5.477278e+002
1.256306e+003, 5.489058e+002
1.256788e+003, 5.482313e+002
1.257270e+003, 5.468955e+002
1.257752e+003, 5.462731e+002
1.258234e+003, 5.460090e+002
1.258716e+003, 5.455027e+002
1.259198e+003, 5.445576e+002
1.259680e+003, 5.440072e+002
1.260163e+003, 5.438781e+002
1.260645e+003, 5.439676e+002
1.261127e+003, 5.444851e+002
1.261609e+003, 5.447772e+002
1.262091e+003, 5.440383e+002
1.262573e+003, 5.428129e+002
1.263055e+003, 5.418382e+002
1.263537e+003, 5.411542e+002
1.264020e+003, 5.405825e+002
1.264502e+003, 5.401151e+002
1.264984e+003, 5.396382e+002
1.265466e+003, 5.387996e+002
1.265948e+003, 5.382815e+002
1.266430e+003, 5.388535e+002
1.266912e+003, 5.397711e+002
1.267394e+003, 5.401845e+002
1.267876e+003, 5.400787e+002
1.268359e+003, 5.400141e+002
1.268841e+003, 5.399744e+002
1.269323e+003, 5.398170e+002
1.269805e+003, 5.398219e+002
1.270287e+003, 5.392299e+002
1.270769e+003, 5.367025e+002
1.271251e+003, 5.343202e+002
1.271733e+003, 5.339669e+002
1.272215e+003, 5.353411e+002
1.272698e+003, 5.360771e+002
1.273180e+003, 5.362112e+002
1.273662e+003, 5.358622e+002
1.274144e+003, 5.346058e+002
1.274626e+003, 5.335775e+002
1.275108e+003, 5.331185e+002
1.275590e+003, 5.327640e+002
1.276072e+003, 5.320845e+002
1.276555e+003, 5.312321e+002
1.277037e+003, 5.308332e+002
1.277519e+003, 5.307276e+002
1.278001e+003, 5.304354e+002
1.278483e+003, 5.294450e+002
1.278965e+003, 5.288320e+002
1.279447e+003, 5.288038e+002
1.279929e+003, 5.287850e+002
1.280411e+003, 5.283021e+002
1.280894e+003, 5.275563e+002
1.281376e+003, 5.268162e+002
1.281858e+003, 5.261255e+002
1.282340e+003, 5.255623e+002
1.282822e+003, 5.250703e+002
1.283304e+003, 5.249690e+002
1.283786e+003, 5.253956e+002
1.284268e+003, 5.255548e+002
1.284750e+003, 5.246277e+002
1.285233e+003, 5.233823e+002
1.285715e+003, 5.228021e+002
1.286197e+003, 5.225138e+002
1.286679e+003, 5.217991e+002
1.287161e+003, 5.204166e+002
1.287643e+003, 5.195403e+002
1.288125e+003, 5.191788e+002
1.288607e+003, 5.189921e+002
1.289090e+003, 5.191126e+002
1.289572e+003, 5.189296e+002
1.290054e+003, 5.176529e+002
1.290536e+003, 5.160283e+002
1.291018e+003, 5.149647e+002
1.291500e+003, 5.144739e+002
1.291982e+003, 5.143008e+002
1.292464e+003, 5.143901e+002
1.292947e+003, 5.142247e+002
1.293429e+003, 5.136265e+002
1.293911e+003, 5.126058e+002
1.294393e+003, 5.105757e+002
1.294875e+003, 5.086983e+002
1.295357e+003, 5.079805e+002
1.295839e+003, 5.081869e+002
1.296321e+003, 5.081437e+002
1.296803e+003, 5.078702e+002
1.297286e+003, 5.073769e+002
1.297768e+003, 5.064747e+002
1.298250e+003, 5.057019e+002
1.298732e+003, 5.052184e+002
1.299214e+003, 5.047364e+002
1.299696e+003, 5.039896e+002
1.300178e+003, 5.030789e+002
1.300660e+003, 5.023745e+002
##END=



