##NAMES=Vuonnemite
##RRUFFID=R080015
##IDEAL CHEMISTRY=Na_6_Na_2_Nb^5+^_2_Na_3_Ti^4+^(Si_2_O_7_)_2_(PO_4_)_2_O_2_(OF)
##LOCALITY=Kedykevrpahkh Mt., Lovozero Massif, Kola Peninsula, Russia
##OWNER=RRUFF
##SOURCE=Michael Scott
##DESCRIPTION=Yellow scale of platy crystals associated with microcline, pale pink elogated serandite, natrolite, and light brown platy manaksite.
##STATUS=The identification of this mineral has been confirmed only by single crystal X-ray diffraction.
##URL=rruff.info/R080015
9.059570e+001, 2.118935e+002
9.107782e+001, 2.057255e+002
9.155994e+001, 2.035426e+002
9.204205e+001, 2.070805e+002
9.252417e+001, 2.134879e+002
9.300629e+001, 2.224488e+002
9.348840e+001, 2.322928e+002
9.397052e+001, 2.404213e+002
9.445264e+001, 2.445134e+002
9.493475e+001, 2.476355e+002
9.541687e+001, 2.498406e+002
9.589898e+001, 2.510624e+002
9.638110e+001, 2.519020e+002
9.686321e+001, 2.527250e+002
9.734533e+001, 2.534915e+002
9.782745e+001, 2.538996e+002
9.830956e+001, 2.554627e+002
9.879168e+001, 2.593743e+002
9.927380e+001, 2.628791e+002
9.975591e+001, 2.653280e+002
1.002380e+002, 2.668369e+002
1.007201e+002, 2.676949e+002
1.012023e+002, 2.680415e+002
1.016844e+002, 2.677866e+002
1.021665e+002, 2.670198e+002
1.026486e+002, 2.647596e+002
1.031307e+002, 2.625812e+002
1.036128e+002, 2.620303e+002
1.040950e+002, 2.632550e+002
1.045771e+002, 2.651364e+002
1.050592e+002, 2.670383e+002
1.055413e+002, 2.689829e+002
1.060234e+002, 2.710490e+002
1.065055e+002, 2.733423e+002
1.069877e+002, 2.757886e+002
1.074698e+002, 2.780960e+002
1.079519e+002, 2.800278e+002
1.084340e+002, 2.820921e+002
1.089161e+002, 2.844780e+002
1.093982e+002, 2.871481e+002
1.098804e+002, 2.899728e+002
1.103625e+002, 2.928537e+002
1.108446e+002, 2.957689e+002
1.113267e+002, 2.987756e+002
1.118088e+002, 3.021044e+002
1.122909e+002, 3.053373e+002
1.127731e+002, 3.084739e+002
1.132552e+002, 3.114017e+002
1.137373e+002, 3.138396e+002
1.142194e+002, 3.153191e+002
1.147015e+002, 3.151237e+002
1.151836e+002, 3.151747e+002
1.156658e+002, 3.157839e+002
1.161479e+002, 3.164872e+002
1.166300e+002, 3.169761e+002
1.171121e+002, 3.171686e+002
1.175942e+002, 3.168583e+002
1.180763e+002, 3.152960e+002
1.185584e+002, 3.117939e+002
1.190406e+002, 3.087464e+002
1.195227e+002, 3.071245e+002
1.200048e+002, 3.065345e+002
1.204869e+002, 3.058773e+002
1.209690e+002, 3.046275e+002
1.214511e+002, 3.030538e+002
1.219333e+002, 3.017088e+002
1.224154e+002, 3.005685e+002
1.228975e+002, 2.996870e+002
1.233796e+002, 2.990598e+002
1.238617e+002, 2.986577e+002
1.243438e+002, 2.987233e+002
1.248260e+002, 2.999037e+002
1.253081e+002, 3.014348e+002
1.257902e+002, 3.026114e+002
1.262723e+002, 3.030736e+002
1.267544e+002, 3.031784e+002
1.272365e+002, 3.038499e+002
1.277187e+002, 3.058757e+002
1.282008e+002, 3.070859e+002
1.286829e+002, 3.067863e+002
1.291650e+002, 3.054489e+002
1.296471e+002, 3.036589e+002
1.301292e+002, 3.017407e+002
1.306114e+002, 2.997016e+002
1.310935e+002, 2.976357e+002
1.315756e+002, 2.961997e+002
1.320577e+002, 2.940762e+002
1.325398e+002, 2.904257e+002
1.330219e+002, 2.857168e+002
1.335041e+002, 2.811000e+002
1.339862e+002, 2.775939e+002
1.344683e+002, 2.754053e+002
1.349504e+002, 2.729752e+002
1.354325e+002, 2.694386e+002
1.359146e+002, 2.663654e+002
1.363968e+002, 2.647358e+002
1.368789e+002, 2.646048e+002
1.373610e+002, 2.653659e+002
1.378431e+002, 2.665466e+002
1.383252e+002, 2.683418e+002
1.388073e+002, 2.693753e+002
1.392895e+002, 2.692300e+002
1.397716e+002, 2.684206e+002
1.402537e+002, 2.672560e+002
1.407358e+002, 2.656100e+002
1.412179e+002, 2.643887e+002
1.417000e+002, 2.651644e+002
1.421821e+002, 2.677333e+002
1.426643e+002, 2.702605e+002
1.431464e+002, 2.721642e+002
1.436285e+002, 2.734639e+002
1.441106e+002, 2.741694e+002
1.445927e+002, 2.739032e+002
1.450748e+002, 2.734449e+002
1.455570e+002, 2.737654e+002
1.460391e+002, 2.748557e+002
1.465212e+002, 2.755315e+002
1.470033e+002, 2.742574e+002
1.474854e+002, 2.707109e+002
1.479675e+002, 2.683663e+002
1.484497e+002, 2.691977e+002
1.489318e+002, 2.706288e+002
1.494139e+002, 2.711292e+002
1.498960e+002, 2.704189e+002
1.503781e+002, 2.695499e+002
1.508602e+002, 2.702064e+002
1.513424e+002, 2.732906e+002
1.518245e+002, 2.760019e+002
1.523066e+002, 2.783696e+002
1.527887e+002, 2.801944e+002
1.532708e+002, 2.811707e+002
1.537529e+002, 2.812052e+002
1.542351e+002, 2.806764e+002
1.547172e+002, 2.805244e+002
1.551993e+002, 2.811508e+002
1.556814e+002, 2.817145e+002
1.561635e+002, 2.820441e+002
1.566456e+002, 2.823270e+002
1.571278e+002, 2.828881e+002
1.576099e+002, 2.839210e+002
1.580920e+002, 2.851962e+002
1.585741e+002, 2.856909e+002
1.590562e+002, 2.845403e+002
1.595383e+002, 2.836928e+002
1.600205e+002, 2.833562e+002
1.605026e+002, 2.836483e+002
1.609847e+002, 2.849774e+002
1.614668e+002, 2.878408e+002
1.619489e+002, 2.917798e+002
1.624310e+002, 2.946436e+002
1.629131e+002, 2.964149e+002
1.633953e+002, 2.972691e+002
1.638774e+002, 2.966155e+002
1.643595e+002, 2.946527e+002
1.648416e+002, 2.933940e+002
1.653237e+002, 2.943942e+002
1.658058e+002, 2.969759e+002
1.662880e+002, 2.994114e+002
1.667701e+002, 3.014787e+002
1.672522e+002, 3.033798e+002
1.677343e+002, 3.053162e+002
1.682164e+002, 3.072898e+002
1.686985e+002, 3.092766e+002
1.691807e+002, 3.113885e+002
1.696628e+002, 3.134683e+002
1.701449e+002, 3.153091e+002
1.706270e+002, 3.168057e+002
1.711091e+002, 3.180218e+002
1.715912e+002, 3.191071e+002
1.720734e+002, 3.200974e+002
1.725555e+002, 3.208604e+002
1.730376e+002, 3.212033e+002
1.735197e+002, 3.213622e+002
1.740018e+002, 3.217399e+002
1.744839e+002, 3.227279e+002
1.749661e+002, 3.241109e+002
1.754482e+002, 3.245139e+002
1.759303e+002, 3.229305e+002
1.764124e+002, 3.214233e+002
1.768945e+002, 3.202741e+002
1.773766e+002, 3.196049e+002
1.778588e+002, 3.197147e+002
1.783409e+002, 3.210505e+002
1.788230e+002, 3.236368e+002
1.793051e+002, 3.242372e+002
1.797872e+002, 3.205190e+002
1.802693e+002, 3.171180e+002
1.807515e+002, 3.154951e+002
1.812336e+002, 3.153906e+002
1.817157e+002, 3.158376e+002
1.821978e+002, 3.160575e+002
1.826799e+002, 3.160372e+002
1.831620e+002, 3.158548e+002
1.836441e+002, 3.151687e+002
1.841263e+002, 3.146493e+002
1.846084e+002, 3.146701e+002
1.850905e+002, 3.152051e+002
1.855726e+002, 3.159727e+002
1.860547e+002, 3.167349e+002
1.865368e+002, 3.174908e+002
1.870190e+002, 3.182460e+002
1.875011e+002, 3.192301e+002
1.879832e+002, 3.200534e+002
1.884653e+002, 3.200839e+002
1.889474e+002, 3.193168e+002
1.894296e+002, 3.189223e+002
1.899117e+002, 3.202719e+002
1.903938e+002, 3.233287e+002
1.908759e+002, 3.260699e+002
1.913580e+002, 3.282739e+002
1.918401e+002, 3.300556e+002
1.923223e+002, 3.314666e+002
1.928044e+002, 3.324663e+002
1.932865e+002, 3.333471e+002
1.937686e+002, 3.341259e+002
1.942507e+002, 3.349236e+002
1.947328e+002, 3.363386e+002
1.952150e+002, 3.391762e+002
1.956971e+002, 3.426602e+002
1.961792e+002, 3.451968e+002
1.966613e+002, 3.463895e+002
1.971434e+002, 3.471971e+002
1.976255e+002, 3.486474e+002
1.981077e+002, 3.503786e+002
1.985898e+002, 3.513420e+002
1.990719e+002, 3.502054e+002
1.995540e+002, 3.476543e+002
2.000361e+002, 3.467562e+002
2.005182e+002, 3.484833e+002
2.010004e+002, 3.507169e+002
2.014825e+002, 3.526231e+002
2.019646e+002, 3.541127e+002
2.024467e+002, 3.549669e+002
2.029288e+002, 3.546527e+002
2.034109e+002, 3.532869e+002
2.038930e+002, 3.529050e+002
2.043752e+002, 3.542034e+002
2.048573e+002, 3.558766e+002
2.053394e+002, 3.574590e+002
2.058215e+002, 3.589952e+002
2.063036e+002, 3.606543e+002
2.067857e+002, 3.624025e+002
2.072679e+002, 3.641818e+002
2.077500e+002, 3.672053e+002
2.082321e+002, 3.723589e+002
2.087142e+002, 3.780406e+002
2.091963e+002, 3.844286e+002
2.096784e+002, 3.910276e+002
2.101606e+002, 3.968303e+002
2.106427e+002, 4.008381e+002
2.111248e+002, 4.027978e+002
2.116069e+002, 4.049813e+002
2.120890e+002, 4.081698e+002
2.125711e+002, 4.108425e+002
2.130533e+002, 4.126722e+002
2.135354e+002, 4.134911e+002
2.140175e+002, 4.130522e+002
2.144996e+002, 4.109898e+002
2.149817e+002, 4.069956e+002
2.154638e+002, 4.034543e+002
2.159460e+002, 4.010641e+002
2.164281e+002, 3.984075e+002
2.169102e+002, 3.942998e+002
2.173923e+002, 3.890528e+002
2.178744e+002, 3.840765e+002
2.183565e+002, 3.806480e+002
2.188387e+002, 3.789498e+002
2.193208e+002, 3.779923e+002
2.198029e+002, 3.785725e+002
2.202850e+002, 3.791522e+002
2.207671e+002, 3.786782e+002
2.212492e+002, 3.771816e+002
2.217314e+002, 3.754719e+002
2.222135e+002, 3.741491e+002
2.226956e+002, 3.732750e+002
2.231777e+002, 3.728532e+002
2.236598e+002, 3.726322e+002
2.241419e+002, 3.730259e+002
2.246240e+002, 3.747928e+002
2.251062e+002, 3.778715e+002
2.255883e+002, 3.807242e+002
2.260704e+002, 3.819822e+002
2.265525e+002, 3.817860e+002
2.270346e+002, 3.818048e+002
2.275167e+002, 3.821229e+002
2.279989e+002, 3.827041e+002
2.284810e+002, 3.839442e+002
2.289631e+002, 3.859070e+002
2.294452e+002, 3.869883e+002
2.299273e+002, 3.849860e+002
2.304094e+002, 3.811817e+002
2.308916e+002, 3.791608e+002
2.313737e+002, 3.811549e+002
2.318558e+002, 3.842856e+002
2.323379e+002, 3.852894e+002
2.328200e+002, 3.839669e+002
2.333021e+002, 3.819023e+002
2.337843e+002, 3.793418e+002
2.342664e+002, 3.768087e+002
2.347485e+002, 3.752039e+002
2.352306e+002, 3.750255e+002
2.357127e+002, 3.756449e+002
2.361948e+002, 3.763713e+002
2.366770e+002, 3.773078e+002
2.371591e+002, 3.779302e+002
2.376412e+002, 3.769832e+002
2.381233e+002, 3.758755e+002
2.386054e+002, 3.764535e+002
2.390875e+002, 3.798766e+002
2.395697e+002, 3.843693e+002
2.400518e+002, 3.868775e+002
2.405339e+002, 3.867068e+002
2.410160e+002, 3.868070e+002
2.414981e+002, 3.881315e+002
2.419802e+002, 3.903436e+002
2.424624e+002, 3.934099e+002
2.429445e+002, 3.974847e+002
2.434266e+002, 4.018647e+002
2.439087e+002, 4.051529e+002
2.443908e+002, 4.067137e+002
2.448729e+002, 4.089197e+002
2.453550e+002, 4.127092e+002
2.458372e+002, 4.172016e+002
2.463193e+002, 4.215836e+002
2.468014e+002, 4.255618e+002
2.472835e+002, 4.296684e+002
2.477656e+002, 4.351124e+002
2.482477e+002, 4.427426e+002
2.487299e+002, 4.496336e+002
2.492120e+002, 4.549445e+002
2.496941e+002, 4.595966e+002
2.501762e+002, 4.641874e+002
2.506583e+002, 4.689208e+002
2.511404e+002, 4.737228e+002
2.516226e+002, 4.785567e+002
2.521047e+002, 4.835313e+002
2.525868e+002, 4.882189e+002
2.530689e+002, 4.920593e+002
2.535510e+002, 4.959830e+002
2.540331e+002, 5.011830e+002
2.545153e+002, 5.077544e+002
2.549974e+002, 5.142142e+002
2.554795e+002, 5.180090e+002
2.559616e+002, 5.170388e+002
2.564437e+002, 5.179389e+002
2.569258e+002, 5.219398e+002
2.574080e+002, 5.266754e+002
2.578901e+002, 5.305673e+002
2.583722e+002, 5.333555e+002
2.588543e+002, 5.359349e+002
2.593364e+002, 5.396834e+002
2.598185e+002, 5.457401e+002
2.603007e+002, 5.499865e+002
2.607828e+002, 5.519970e+002
2.612649e+002, 5.529874e+002
2.617470e+002, 5.533790e+002
2.622291e+002, 5.533965e+002
2.627112e+002, 5.534126e+002
2.631934e+002, 5.540446e+002
2.636755e+002, 5.560623e+002
2.641576e+002, 5.556488e+002
2.646397e+002, 5.511796e+002
2.651218e+002, 5.461509e+002
2.656039e+002, 5.427452e+002
2.660861e+002, 5.408461e+002
2.665682e+002, 5.387273e+002
2.670503e+002, 5.345565e+002
2.675324e+002, 5.278243e+002
2.680145e+002, 5.223971e+002
2.684966e+002, 5.191057e+002
2.689788e+002, 5.160753e+002
2.694609e+002, 5.128810e+002
2.699430e+002, 5.092427e+002
2.704251e+002, 5.044745e+002
2.709072e+002, 4.976915e+002
2.713893e+002, 4.887860e+002
2.718715e+002, 4.825754e+002
2.723536e+002, 4.810565e+002
2.728357e+002, 4.796616e+002
2.733178e+002, 4.763956e+002
2.737999e+002, 4.716324e+002
2.742820e+002, 4.667719e+002
2.747642e+002, 4.627775e+002
2.752463e+002, 4.595413e+002
2.757284e+002, 4.558076e+002
2.762105e+002, 4.510388e+002
2.766926e+002, 4.464633e+002
2.771747e+002, 4.421858e+002
2.776568e+002, 4.383849e+002
2.781389e+002, 4.356548e+002
2.786211e+002, 4.345311e+002
2.791032e+002, 4.344135e+002
2.795853e+002, 4.326024e+002
2.800674e+002, 4.269134e+002
2.805495e+002, 4.224246e+002
2.810316e+002, 4.211132e+002
2.815138e+002, 4.217698e+002
2.819959e+002, 4.223651e+002
2.824780e+002, 4.220803e+002
2.829601e+002, 4.210884e+002
2.834422e+002, 4.196947e+002
2.839243e+002, 4.172347e+002
2.844065e+002, 4.156348e+002
2.848886e+002, 4.160052e+002
2.853707e+002, 4.172869e+002
2.858528e+002, 4.178135e+002
2.863349e+002, 4.169753e+002
2.868170e+002, 4.156344e+002
2.872992e+002, 4.152101e+002
2.877813e+002, 4.157544e+002
2.882634e+002, 4.168932e+002
2.887455e+002, 4.188719e+002
2.892276e+002, 4.213000e+002
2.897097e+002, 4.238473e+002
2.901919e+002, 4.264592e+002
2.906740e+002, 4.287913e+002
2.911561e+002, 4.302883e+002
2.916382e+002, 4.307909e+002
2.921203e+002, 4.316737e+002
2.926024e+002, 4.330223e+002
2.930846e+002, 4.348373e+002
2.935667e+002, 4.374853e+002
2.940488e+002, 4.409877e+002
2.945309e+002, 4.441008e+002
2.950130e+002, 4.453849e+002
2.954951e+002, 4.448239e+002
2.959773e+002, 4.453284e+002
2.964594e+002, 4.476229e+002
2.969415e+002, 4.505628e+002
2.974236e+002, 4.536592e+002
2.979057e+002, 4.567696e+002
2.983878e+002, 4.591205e+002
2.988700e+002, 4.598627e+002
2.993521e+002, 4.593012e+002
2.998342e+002, 4.596463e+002
3.003163e+002, 4.620795e+002
3.007984e+002, 4.643232e+002
3.012805e+002, 4.644474e+002
3.017627e+002, 4.629899e+002
3.022448e+002, 4.625094e+002
3.027269e+002, 4.645521e+002
3.032090e+002, 4.683783e+002
3.036911e+002, 4.716288e+002
3.041732e+002, 4.741405e+002
3.046554e+002, 4.764505e+002
3.051375e+002, 4.791185e+002
3.056196e+002, 4.817961e+002
3.061017e+002, 4.834114e+002
3.065838e+002, 4.833115e+002
3.070659e+002, 4.824282e+002
3.075481e+002, 4.827101e+002
3.080302e+002, 4.845161e+002
3.085123e+002, 4.858431e+002
3.089944e+002, 4.855829e+002
3.094765e+002, 4.845198e+002
3.099586e+002, 4.841309e+002
3.104408e+002, 4.849124e+002
3.109229e+002, 4.858882e+002
3.114050e+002, 4.855483e+002
3.118871e+002, 4.838431e+002
3.123692e+002, 4.825858e+002
3.128513e+002, 4.826749e+002
3.133335e+002, 4.831414e+002
3.138156e+002, 4.825366e+002
3.142977e+002, 4.806014e+002
3.147798e+002, 4.789514e+002
3.152619e+002, 4.796234e+002
3.157440e+002, 4.823552e+002
3.162262e+002, 4.832139e+002
3.167083e+002, 4.807804e+002
3.171904e+002, 4.771337e+002
3.176725e+002, 4.733455e+002
3.181546e+002, 4.695907e+002
3.186367e+002, 4.670710e+002
3.191188e+002, 4.668658e+002
3.196010e+002, 4.686292e+002
3.200831e+002, 4.700970e+002
3.205652e+002, 4.716020e+002
3.210473e+002, 4.725115e+002
3.215294e+002, 4.720811e+002
3.220115e+002, 4.706658e+002
3.224937e+002, 4.694957e+002
3.229758e+002, 4.691279e+002
3.234579e+002, 4.693884e+002
3.239400e+002, 4.698161e+002
3.244221e+002, 4.703228e+002
3.249042e+002, 4.711283e+002
3.253864e+002, 4.725417e+002
3.258685e+002, 4.742770e+002
3.263506e+002, 4.758407e+002
3.268327e+002, 4.770989e+002
3.273148e+002, 4.780697e+002
3.277969e+002, 4.786056e+002
3.282791e+002, 4.785374e+002
3.287612e+002, 4.790287e+002
3.292433e+002, 4.803289e+002
3.297254e+002, 4.822843e+002
3.302075e+002, 4.849062e+002
3.306896e+002, 4.881972e+002
3.311718e+002, 4.915786e+002
3.316539e+002, 4.944044e+002
3.321360e+002, 4.966189e+002
3.326181e+002, 4.993522e+002
3.331002e+002, 5.030667e+002
3.335823e+002, 5.069671e+002
3.340645e+002, 5.102357e+002
3.345466e+002, 5.129766e+002
3.350287e+002, 5.163104e+002
3.355108e+002, 5.211453e+002
3.359929e+002, 5.272592e+002
3.364750e+002, 5.327156e+002
3.369572e+002, 5.372905e+002
3.374393e+002, 5.415879e+002
3.379214e+002, 5.455673e+002
3.384035e+002, 5.494639e+002
3.388856e+002, 5.539523e+002
3.393677e+002, 5.595007e+002
3.398499e+002, 5.654535e+002
3.403320e+002, 5.698605e+002
3.408141e+002, 5.716820e+002
3.412962e+002, 5.740719e+002
3.417783e+002, 5.783559e+002
3.422604e+002, 5.832767e+002
3.427426e+002, 5.871639e+002
3.432247e+002, 5.895270e+002
3.437068e+002, 5.910502e+002
3.441889e+002, 5.926609e+002
3.446710e+002, 5.945229e+002
3.451531e+002, 5.959034e+002
3.456353e+002, 5.963422e+002
3.461174e+002, 5.966068e+002
3.465995e+002, 5.972311e+002
3.470816e+002, 5.982731e+002
3.475637e+002, 5.996856e+002
3.480458e+002, 6.016307e+002
3.485280e+002, 6.041926e+002
3.490101e+002, 6.048362e+002
3.494922e+002, 6.027338e+002
3.499743e+002, 5.999194e+002
3.504564e+002, 5.962609e+002
3.509385e+002, 5.925614e+002
3.514207e+002, 5.906666e+002
3.519028e+002, 5.918663e+002
3.523849e+002, 5.952464e+002
3.528670e+002, 5.968693e+002
3.533491e+002, 5.965387e+002
3.538312e+002, 5.947190e+002
3.543134e+002, 5.897640e+002
3.547955e+002, 5.840132e+002
3.552776e+002, 5.806341e+002
3.557597e+002, 5.806546e+002
3.562418e+002, 5.818239e+002
3.567239e+002, 5.802571e+002
3.572061e+002, 5.741987e+002
3.576882e+002, 5.687997e+002
3.581703e+002, 5.638925e+002
3.586524e+002, 5.596813e+002
3.591345e+002, 5.570140e+002
3.596166e+002, 5.555081e+002
3.600987e+002, 5.533609e+002
3.605808e+002, 5.485422e+002
3.610630e+002, 5.405777e+002
3.615451e+002, 5.345478e+002
3.620272e+002, 5.320698e+002
3.625093e+002, 5.297173e+002
3.629914e+002, 5.263044e+002
3.634735e+002, 5.221693e+002
3.639557e+002, 5.181862e+002
3.644378e+002, 5.148829e+002
3.649199e+002, 5.121142e+002
3.654020e+002, 5.092774e+002
3.658841e+002, 5.065448e+002
3.663662e+002, 5.034801e+002
3.668484e+002, 4.993728e+002
3.673305e+002, 4.952719e+002
3.678126e+002, 4.921767e+002
3.682947e+002, 4.904196e+002
3.687768e+002, 4.896271e+002
3.692589e+002, 4.893935e+002
3.697411e+002, 4.901373e+002
3.702232e+002, 4.902829e+002
3.707053e+002, 4.894412e+002
3.711874e+002, 4.883143e+002
3.716695e+002, 4.868766e+002
3.721516e+002, 4.853866e+002
3.726338e+002, 4.845084e+002
3.731159e+002, 4.849585e+002
3.735980e+002, 4.866930e+002
3.740801e+002, 4.883472e+002
3.745622e+002, 4.898813e+002
3.750443e+002, 4.913761e+002
3.755265e+002, 4.926923e+002
3.760086e+002, 4.940249e+002
3.764907e+002, 4.955700e+002
3.769728e+002, 4.973452e+002
3.774549e+002, 4.995971e+002
3.779370e+002, 5.031421e+002
3.784192e+002, 5.086626e+002
3.789013e+002, 5.135309e+002
3.793834e+002, 5.166262e+002
3.798655e+002, 5.190467e+002
3.803476e+002, 5.214095e+002
3.808297e+002, 5.238525e+002
3.813119e+002, 5.266696e+002
3.817940e+002, 5.305561e+002
3.822761e+002, 5.354802e+002
3.827582e+002, 5.391976e+002
3.832403e+002, 5.403004e+002
3.837224e+002, 5.414745e+002
3.842046e+002, 5.448856e+002
3.846867e+002, 5.499635e+002
3.851688e+002, 5.546945e+002
3.856509e+002, 5.574861e+002
3.861330e+002, 5.592308e+002
3.866151e+002, 5.619818e+002
3.870973e+002, 5.658698e+002
3.875794e+002, 5.702770e+002
3.880615e+002, 5.758634e+002
3.885436e+002, 5.814846e+002
3.890257e+002, 5.852150e+002
3.895078e+002, 5.858271e+002
3.899900e+002, 5.860518e+002
3.904721e+002, 5.883788e+002
3.909542e+002, 5.925878e+002
3.914363e+002, 5.969484e+002
3.919184e+002, 6.010728e+002
3.924005e+002, 6.048841e+002
3.928827e+002, 6.083648e+002
3.933648e+002, 6.115524e+002
3.938469e+002, 6.142625e+002
3.943290e+002, 6.158971e+002
3.948111e+002, 6.171754e+002
3.952932e+002, 6.194450e+002
3.957754e+002, 6.230187e+002
3.962575e+002, 6.264868e+002
3.967396e+002, 6.283734e+002
3.972217e+002, 6.288666e+002
3.977038e+002, 6.303072e+002
3.981859e+002, 6.327592e+002
3.986681e+002, 6.362377e+002
3.991501e+002, 6.416636e+002
3.996323e+002, 6.483417e+002
4.001144e+002, 6.535707e+002
4.005965e+002, 6.555887e+002
4.010786e+002, 6.559426e+002
4.015607e+002, 6.592607e+002
4.020428e+002, 6.671544e+002
4.025250e+002, 6.746566e+002
4.030071e+002, 6.799000e+002
4.034892e+002, 6.847727e+002
4.039713e+002, 6.918498e+002
4.044534e+002, 7.015635e+002
4.049355e+002, 7.117439e+002
4.054177e+002, 7.196955e+002
4.058998e+002, 7.246133e+002
4.063819e+002, 7.311273e+002
4.068640e+002, 7.408081e+002
4.073461e+002, 7.503505e+002
4.078282e+002, 7.575063e+002
4.083104e+002, 7.631672e+002
4.087925e+002, 7.697890e+002
4.092746e+002, 7.790236e+002
4.097567e+002, 7.903663e+002
4.102388e+002, 8.016440e+002
4.107209e+002, 8.130264e+002
4.112031e+002, 8.240649e+002
4.116852e+002, 8.341302e+002
4.121673e+002, 8.441657e+002
4.126494e+002, 8.553540e+002
4.131315e+002, 8.678837e+002
4.136136e+002, 8.806395e+002
4.140958e+002, 8.920927e+002
4.145779e+002, 9.020098e+002
4.150600e+002, 9.117617e+002
4.155421e+002, 9.218406e+002
4.160242e+002, 9.312369e+002
4.165063e+002, 9.397086e+002
4.169885e+002, 9.471901e+002
4.174706e+002, 9.534388e+002
4.179527e+002, 9.582252e+002
4.184348e+002, 9.618138e+002
4.189169e+002, 9.649855e+002
4.193990e+002, 9.671552e+002
4.198812e+002, 9.702088e+002
4.203633e+002, 9.776625e+002
4.208454e+002, 9.846424e+002
4.213275e+002, 9.856996e+002
4.218096e+002, 9.794034e+002
4.222917e+002, 9.711676e+002
4.227739e+002, 9.666981e+002
4.232560e+002, 9.657786e+002
4.237381e+002, 9.638592e+002
4.242202e+002, 9.606346e+002
4.247023e+002, 9.556393e+002
4.251844e+002, 9.481781e+002
4.256666e+002, 9.387445e+002
4.261487e+002, 9.290292e+002
4.266308e+002, 9.199764e+002
4.271129e+002, 9.109211e+002
4.275950e+002, 9.005664e+002
4.280771e+002, 8.887349e+002
4.285593e+002, 8.776759e+002
4.290414e+002, 8.693617e+002
4.295235e+002, 8.622352e+002
4.300056e+002, 8.527520e+002
4.304877e+002, 8.397047e+002
4.309698e+002, 8.270233e+002
4.314520e+002, 8.171996e+002
4.319341e+002, 8.090854e+002
4.324162e+002, 8.001974e+002
4.328983e+002, 7.898865e+002
4.333804e+002, 7.793286e+002
4.338625e+002, 7.698885e+002
4.343447e+002, 7.617384e+002
4.348268e+002, 7.537020e+002
4.353089e+002, 7.454075e+002
4.357910e+002, 7.374929e+002
4.362731e+002, 7.310146e+002
4.367552e+002, 7.254359e+002
4.372374e+002, 7.187067e+002
4.377195e+002, 7.093810e+002
4.382016e+002, 6.985354e+002
4.386837e+002, 6.904601e+002
4.391658e+002, 6.879459e+002
4.396479e+002, 6.846525e+002
4.401301e+002, 6.792915e+002
4.406122e+002, 6.734839e+002
4.410943e+002, 6.686396e+002
4.415764e+002, 6.651251e+002
4.420585e+002, 6.626689e+002
4.425406e+002, 6.612055e+002
4.430227e+002, 6.610296e+002
4.435049e+002, 6.596789e+002
4.439870e+002, 6.555719e+002
4.444691e+002, 6.519291e+002
4.449512e+002, 6.502121e+002
4.454333e+002, 6.495552e+002
4.459154e+002, 6.482968e+002
4.463976e+002, 6.455092e+002
4.468797e+002, 6.421396e+002
4.473618e+002, 6.403377e+002
4.478439e+002, 6.405006e+002
4.483260e+002, 6.410568e+002
4.488081e+002, 6.425704e+002
4.492903e+002, 6.437606e+002
4.497724e+002, 6.436296e+002
4.502545e+002, 6.422125e+002
4.507366e+002, 6.404797e+002
4.512187e+002, 6.389661e+002
4.517008e+002, 6.377084e+002
4.521830e+002, 6.369699e+002
4.526651e+002, 6.368964e+002
4.531472e+002, 6.369921e+002
4.536293e+002, 6.372048e+002
4.541114e+002, 6.373419e+002
4.545935e+002, 6.370819e+002
4.550757e+002, 6.362950e+002
4.555578e+002, 6.352177e+002
4.560399e+002, 6.340778e+002
4.565220e+002, 6.328257e+002
4.570041e+002, 6.312053e+002
4.574862e+002, 6.291049e+002
4.579684e+002, 6.266823e+002
4.584505e+002, 6.237040e+002
4.589326e+002, 6.201061e+002
4.594147e+002, 6.179657e+002
4.598968e+002, 6.191758e+002
4.603789e+002, 6.209135e+002
4.608611e+002, 6.207560e+002
4.613432e+002, 6.187534e+002
4.618253e+002, 6.159527e+002
4.623074e+002, 6.127159e+002
4.627895e+002, 6.094371e+002
4.632716e+002, 6.077310e+002
4.637538e+002, 6.103429e+002
4.642359e+002, 6.108397e+002
4.647180e+002, 6.071991e+002
4.652001e+002, 6.017971e+002
4.656822e+002, 5.968394e+002
4.661643e+002, 5.928383e+002
4.666465e+002, 5.893357e+002
4.671286e+002, 5.857993e+002
4.676107e+002, 5.821228e+002
4.680928e+002, 5.791642e+002
4.685749e+002, 5.778792e+002
4.690570e+002, 5.762867e+002
4.695392e+002, 5.735906e+002
4.700213e+002, 5.703234e+002
4.705034e+002, 5.674995e+002
4.709855e+002, 5.656011e+002
4.714676e+002, 5.637327e+002
4.719497e+002, 5.599760e+002
4.724319e+002, 5.536715e+002
4.729140e+002, 5.484186e+002
4.733961e+002, 5.454937e+002
4.738782e+002, 5.431777e+002
4.743603e+002, 5.406685e+002
4.748424e+002, 5.379464e+002
4.753246e+002, 5.351541e+002
4.758067e+002, 5.326298e+002
4.762888e+002, 5.300234e+002
4.767709e+002, 5.262856e+002
4.772530e+002, 5.212050e+002
4.777351e+002, 5.164273e+002
4.782173e+002, 5.127598e+002
4.786994e+002, 5.098599e+002
4.791815e+002, 5.072194e+002
4.796636e+002, 5.049181e+002
4.801457e+002, 5.025259e+002
4.806278e+002, 4.998976e+002
4.811100e+002, 4.970134e+002
4.815920e+002, 4.936357e+002
4.820742e+002, 4.896888e+002
4.825563e+002, 4.859675e+002
4.830384e+002, 4.831888e+002
4.835205e+002, 4.813766e+002
4.840026e+002, 4.796599e+002
4.844847e+002, 4.783556e+002
4.849669e+002, 4.768010e+002
4.854490e+002, 4.745704e+002
4.859311e+002, 4.719274e+002
4.864132e+002, 4.692661e+002
4.868953e+002, 4.667293e+002
4.873774e+002, 4.644207e+002
4.878596e+002, 4.625839e+002
4.883417e+002, 4.615405e+002
4.888238e+002, 4.600399e+002
4.893059e+002, 4.580757e+002
4.897880e+002, 4.557527e+002
4.902701e+002, 4.527453e+002
4.907523e+002, 4.494406e+002
4.912344e+002, 4.467182e+002
4.917165e+002, 4.452128e+002
4.921986e+002, 4.443670e+002
4.926807e+002, 4.425094e+002
4.931628e+002, 4.390833e+002
4.936450e+002, 4.362035e+002
4.941271e+002, 4.347462e+002
4.946092e+002, 4.336937e+002
4.950913e+002, 4.324984e+002
4.955734e+002, 4.310895e+002
4.960555e+002, 4.295068e+002
4.965377e+002, 4.280666e+002
4.970198e+002, 4.264611e+002
4.975019e+002, 4.233712e+002
4.979840e+002, 4.182397e+002
4.984661e+002, 4.141891e+002
4.989482e+002, 4.137432e+002
4.994304e+002, 4.151778e+002
4.999125e+002, 4.150831e+002
5.003946e+002, 4.127490e+002
5.008767e+002, 4.102087e+002
5.013588e+002, 4.083827e+002
5.018409e+002, 4.070419e+002
5.023231e+002, 4.057873e+002
5.028052e+002, 4.045436e+002
5.032873e+002, 4.033701e+002
5.037694e+002, 4.024543e+002
5.042515e+002, 4.018034e+002
5.047336e+002, 4.002104e+002
5.052158e+002, 3.964023e+002
5.056979e+002, 3.931825e+002
5.061800e+002, 3.920484e+002
5.066621e+002, 3.919903e+002
5.071442e+002, 3.914240e+002
5.076263e+002, 3.897878e+002
5.081085e+002, 3.877270e+002
5.085906e+002, 3.862637e+002
5.090727e+002, 3.856117e+002
5.095548e+002, 3.847746e+002
5.100369e+002, 3.835042e+002
5.105190e+002, 3.822958e+002
5.110012e+002, 3.819145e+002
5.114833e+002, 3.816482e+002
5.119654e+002, 3.798161e+002
5.124475e+002, 3.751600e+002
5.129296e+002, 3.699297e+002
5.134117e+002, 3.688261e+002
5.138939e+002, 3.725684e+002
5.143760e+002, 3.748127e+002
5.148581e+002, 3.733088e+002
5.153402e+002, 3.707161e+002
5.158223e+002, 3.693990e+002
5.163044e+002, 3.691511e+002
5.167866e+002, 3.684302e+002
5.172687e+002, 3.659241e+002
5.177508e+002, 3.629722e+002
5.182329e+002, 3.614890e+002
5.187150e+002, 3.613865e+002
5.191971e+002, 3.610927e+002
5.196793e+002, 3.597765e+002
5.201614e+002, 3.579328e+002
5.206435e+002, 3.567960e+002
5.211256e+002, 3.567338e+002
5.216077e+002, 3.561484e+002
5.220898e+002, 3.541005e+002
5.225720e+002, 3.518933e+002
5.230541e+002, 3.507691e+002
5.235362e+002, 3.506916e+002
5.240183e+002, 3.508796e+002
5.245004e+002, 3.508385e+002
5.249825e+002, 3.505143e+002
5.254647e+002, 3.495830e+002
5.259468e+002, 3.475297e+002
5.264289e+002, 3.455893e+002
5.269110e+002, 3.437423e+002
5.273931e+002, 3.421236e+002
5.278752e+002, 3.412018e+002
5.283574e+002, 3.408011e+002
5.288395e+002, 3.398445e+002
5.293216e+002, 3.369537e+002
5.298037e+002, 3.326186e+002
5.302858e+002, 3.299533e+002
5.307679e+002, 3.296229e+002
5.312501e+002, 3.294427e+002
5.317322e+002, 3.283884e+002
5.322143e+002, 3.270500e+002
5.326964e+002, 3.259718e+002
5.331785e+002, 3.252301e+002
5.336606e+002, 3.247861e+002
5.341428e+002, 3.250241e+002
5.346249e+002, 3.254610e+002
5.351070e+002, 3.250054e+002
5.355891e+002, 3.234878e+002
5.360712e+002, 3.214603e+002
5.365533e+002, 3.191948e+002
5.370355e+002, 3.167595e+002
5.375176e+002, 3.146156e+002
5.379997e+002, 3.123768e+002
5.384818e+002, 3.108568e+002
5.389639e+002, 3.107130e+002
5.394460e+002, 3.112110e+002
5.399282e+002, 3.115888e+002
5.404103e+002, 3.116234e+002
5.408924e+002, 3.112076e+002
5.413745e+002, 3.100911e+002
5.418566e+002, 3.082259e+002
5.423387e+002, 3.073401e+002
5.428209e+002, 3.088800e+002
5.433029e+002, 3.096876e+002
5.437850e+002, 3.084683e+002
5.442672e+002, 3.065151e+002
5.447493e+002, 3.051830e+002
5.452314e+002, 3.048539e+002
5.457135e+002, 3.052575e+002
5.461956e+002, 3.064532e+002
5.466777e+002, 3.083300e+002
5.471599e+002, 3.094786e+002
5.476420e+002, 3.096636e+002
5.481241e+002, 3.094634e+002
5.486062e+002, 3.089438e+002
5.490883e+002, 3.083361e+002
5.495704e+002, 3.080560e+002
5.500526e+002, 3.083189e+002
5.505347e+002, 3.086059e+002
5.510168e+002, 3.084875e+002
5.514989e+002, 3.081772e+002
5.519810e+002, 3.081401e+002
5.524631e+002, 3.084760e+002
5.529453e+002, 3.089193e+002
5.534274e+002, 3.091177e+002
5.539095e+002, 3.090733e+002
5.543916e+002, 3.099650e+002
5.548737e+002, 3.129153e+002
5.553558e+002, 3.153127e+002
5.558380e+002, 3.157699e+002
5.563201e+002, 3.155928e+002
5.568022e+002, 3.166434e+002
5.572843e+002, 3.192791e+002
5.577664e+002, 3.220087e+002
5.582485e+002, 3.229156e+002
5.587307e+002, 3.218924e+002
5.592128e+002, 3.219833e+002
5.596949e+002, 3.238049e+002
5.601770e+002, 3.259088e+002
5.606591e+002, 3.277841e+002
5.611412e+002, 3.296396e+002
5.616234e+002, 3.317679e+002
5.621055e+002, 3.342500e+002
5.625876e+002, 3.368583e+002
5.630697e+002, 3.394099e+002
5.635518e+002, 3.419289e+002
5.640339e+002, 3.444413e+002
5.645161e+002, 3.469193e+002
5.649982e+002, 3.496162e+002
5.654803e+002, 3.527873e+002
5.659624e+002, 3.563419e+002
5.664445e+002, 3.598294e+002
5.669266e+002, 3.634773e+002
5.674088e+002, 3.667362e+002
5.678909e+002, 3.686729e+002
5.683730e+002, 3.704669e+002
5.688551e+002, 3.737338e+002
5.693372e+002, 3.786614e+002
5.698193e+002, 3.843160e+002
5.703015e+002, 3.898063e+002
5.707836e+002, 3.951696e+002
5.712657e+002, 4.007115e+002
5.717478e+002, 4.063148e+002
5.722299e+002, 4.123135e+002
5.727120e+002, 4.190075e+002
5.731942e+002, 4.259666e+002
5.736763e+002, 4.326924e+002
5.741584e+002, 4.391861e+002
5.746405e+002, 4.459443e+002
5.751226e+002, 4.540544e+002
5.756047e+002, 4.628792e+002
5.760869e+002, 4.695723e+002
5.765690e+002, 4.737531e+002
5.770511e+002, 4.774207e+002
5.775332e+002, 4.820518e+002
5.780153e+002, 4.862820e+002
5.784974e+002, 4.883632e+002
5.789796e+002, 4.884178e+002
5.794617e+002, 4.856311e+002
5.799438e+002, 4.777514e+002
5.804259e+002, 4.680269e+002
5.809080e+002, 4.599092e+002
5.813901e+002, 4.536627e+002
5.818723e+002, 4.482795e+002
5.823544e+002, 4.432478e+002
5.828365e+002, 4.383784e+002
5.833186e+002, 4.329429e+002
5.838007e+002, 4.252169e+002
5.842828e+002, 4.196225e+002
5.847650e+002, 4.178576e+002
5.852471e+002, 4.167239e+002
5.857292e+002, 4.141676e+002
5.862113e+002, 4.103105e+002
5.866934e+002, 4.061226e+002
5.871755e+002, 4.018913e+002
5.876577e+002, 3.983123e+002
5.881398e+002, 3.975590e+002
5.886219e+002, 4.001764e+002
5.891040e+002, 4.018386e+002
5.895861e+002, 4.010623e+002
5.900682e+002, 3.994615e+002
5.905504e+002, 3.986728e+002
5.910325e+002, 3.985227e+002
5.915146e+002, 3.978678e+002
5.919967e+002, 3.960110e+002
5.924788e+002, 3.938102e+002
5.929609e+002, 3.920781e+002
5.934431e+002, 3.906275e+002
5.939252e+002, 3.888054e+002
5.944073e+002, 3.863623e+002
5.948894e+002, 3.836298e+002
5.953715e+002, 3.808733e+002
5.958536e+002, 3.776472e+002
5.963358e+002, 3.765302e+002
5.968179e+002, 3.801783e+002
5.973000e+002, 3.826733e+002
5.977821e+002, 3.811315e+002
5.982642e+002, 3.774263e+002
5.987463e+002, 3.743039e+002
5.992285e+002, 3.726989e+002
5.997106e+002, 3.716473e+002
6.001927e+002, 3.697197e+002
6.006748e+002, 3.669804e+002
6.011569e+002, 3.656303e+002
6.016390e+002, 3.664131e+002
6.021212e+002, 3.672062e+002
6.026033e+002, 3.666517e+002
6.030854e+002, 3.653770e+002
6.035675e+002, 3.643309e+002
6.040496e+002, 3.637416e+002
6.045317e+002, 3.630206e+002
6.050139e+002, 3.617171e+002
6.054960e+002, 3.601615e+002
6.059781e+002, 3.587935e+002
6.064602e+002, 3.576805e+002
6.069423e+002, 3.567644e+002
6.074244e+002, 3.560006e+002
6.079066e+002, 3.554165e+002
6.083887e+002, 3.551414e+002
6.088708e+002, 3.557285e+002
6.093529e+002, 3.558282e+002
6.098350e+002, 3.551110e+002
6.103171e+002, 3.541385e+002
6.107993e+002, 3.531439e+002
6.112814e+002, 3.522451e+002
6.117635e+002, 3.516513e+002
6.122456e+002, 3.516032e+002
6.127277e+002, 3.517597e+002
6.132098e+002, 3.514899e+002
6.136920e+002, 3.508022e+002
6.141741e+002, 3.494395e+002
6.146562e+002, 3.468693e+002
6.151383e+002, 3.442088e+002
6.156204e+002, 3.429923e+002
6.161025e+002, 3.428793e+002
6.165847e+002, 3.416795e+002
6.170668e+002, 3.379637e+002
6.175489e+002, 3.340100e+002
6.180310e+002, 3.313113e+002
6.185131e+002, 3.294277e+002
6.189952e+002, 3.273845e+002
6.194774e+002, 3.248976e+002
6.199595e+002, 3.224067e+002
6.204416e+002, 3.204296e+002
6.209237e+002, 3.189814e+002
6.214058e+002, 3.177238e+002
6.218879e+002, 3.171484e+002
6.223701e+002, 3.161452e+002
6.228522e+002, 3.139313e+002
6.233343e+002, 3.115061e+002
6.238164e+002, 3.101113e+002
6.242985e+002, 3.099047e+002
6.247806e+002, 3.096290e+002
6.252628e+002, 3.081407e+002
6.257448e+002, 3.058294e+002
6.262269e+002, 3.037971e+002
6.267090e+002, 3.021048e+002
6.271912e+002, 3.000893e+002
6.276733e+002, 2.970953e+002
6.281554e+002, 2.939271e+002
6.286375e+002, 2.924175e+002
6.291196e+002, 2.930814e+002
6.296017e+002, 2.926778e+002
6.300839e+002, 2.898881e+002
6.305660e+002, 2.866326e+002
6.310481e+002, 2.838577e+002
6.315302e+002, 2.817307e+002
6.320123e+002, 2.804796e+002
6.324944e+002, 2.802168e+002
6.329766e+002, 2.803375e+002
6.334587e+002, 2.797894e+002
6.339408e+002, 2.784171e+002
6.344229e+002, 2.771961e+002
6.349050e+002, 2.766874e+002
6.353871e+002, 2.755891e+002
6.358693e+002, 2.728153e+002
6.363514e+002, 2.693295e+002
6.368335e+002, 2.665669e+002
6.373156e+002, 2.649009e+002
6.377977e+002, 2.638629e+002
6.382798e+002, 2.635667e+002
6.387620e+002, 2.635455e+002
6.392441e+002, 2.627599e+002
6.397262e+002, 2.611275e+002
6.402083e+002, 2.596353e+002
6.406904e+002, 2.590441e+002
6.411725e+002, 2.589326e+002
6.416547e+002, 2.578651e+002
6.421368e+002, 2.546142e+002
6.426189e+002, 2.522148e+002
6.431010e+002, 2.514189e+002
6.435831e+002, 2.508039e+002
6.440652e+002, 2.493575e+002
6.445474e+002, 2.473257e+002
6.450295e+002, 2.455066e+002
6.455116e+002, 2.443227e+002
6.459937e+002, 2.435582e+002
6.464758e+002, 2.428971e+002
6.469579e+002, 2.423401e+002
6.474401e+002, 2.419695e+002
6.479222e+002, 2.418757e+002
6.484043e+002, 2.418114e+002
6.488864e+002, 2.416054e+002
6.493685e+002, 2.412791e+002
6.498506e+002, 2.408990e+002
6.503328e+002, 2.404313e+002
6.508149e+002, 2.399740e+002
6.512970e+002, 2.394883e+002
6.517791e+002, 2.390791e+002
6.522612e+002, 2.390824e+002
6.527433e+002, 2.393916e+002
6.532255e+002, 2.392725e+002
6.537076e+002, 2.381122e+002
6.541897e+002, 2.362538e+002
6.546718e+002, 2.349772e+002
6.551539e+002, 2.344751e+002
6.556360e+002, 2.340939e+002
6.561182e+002, 2.335629e+002
6.566003e+002, 2.333014e+002
6.570824e+002, 2.337948e+002
6.575645e+002, 2.347766e+002
6.580466e+002, 2.354427e+002
6.585287e+002, 2.354806e+002
6.590109e+002, 2.351100e+002
6.594930e+002, 2.341994e+002
6.599751e+002, 2.330547e+002
6.604572e+002, 2.327246e+002
6.609393e+002, 2.334629e+002
6.614214e+002, 2.340925e+002
6.619036e+002, 2.334556e+002
6.623857e+002, 2.317330e+002
6.628678e+002, 2.308894e+002
6.633499e+002, 2.316320e+002
6.638320e+002, 2.323418e+002
6.643141e+002, 2.332075e+002
6.647963e+002, 2.337480e+002
6.652784e+002, 2.330688e+002
6.657605e+002, 2.316121e+002
6.662426e+002, 2.311075e+002
6.667247e+002, 2.329816e+002
6.672068e+002, 2.358079e+002
6.676890e+002, 2.368973e+002
6.681711e+002, 2.363019e+002
6.686532e+002, 2.358479e+002
6.691353e+002, 2.360261e+002
6.696174e+002, 2.362178e+002
6.700995e+002, 2.356665e+002
6.705817e+002, 2.345045e+002
6.710638e+002, 2.340560e+002
6.715459e+002, 2.347616e+002
6.720280e+002, 2.356615e+002
6.725101e+002, 2.365131e+002
6.729922e+002, 2.373664e+002
6.734744e+002, 2.383910e+002
6.739565e+002, 2.395240e+002
6.744386e+002, 2.404267e+002
6.749207e+002, 2.408317e+002
6.754028e+002, 2.408379e+002
6.758849e+002, 2.407231e+002
6.763671e+002, 2.404337e+002
6.768492e+002, 2.402427e+002
6.773313e+002, 2.400387e+002
6.778134e+002, 2.401481e+002
6.782955e+002, 2.410213e+002
6.787776e+002, 2.424301e+002
6.792598e+002, 2.435436e+002
6.797419e+002, 2.439720e+002
6.802240e+002, 2.443203e+002
6.807061e+002, 2.449536e+002
6.811882e+002, 2.457332e+002
6.816703e+002, 2.462973e+002
6.821525e+002, 2.466605e+002
6.826346e+002, 2.475273e+002
6.831167e+002, 2.496515e+002
6.835988e+002, 2.525441e+002
6.840809e+002, 2.536619e+002
6.845630e+002, 2.518983e+002
6.850452e+002, 2.507791e+002
6.855273e+002, 2.510963e+002
6.860094e+002, 2.519048e+002
6.864915e+002, 2.526324e+002
6.869736e+002, 2.534019e+002
6.874557e+002, 2.547471e+002
6.879379e+002, 2.572510e+002
6.884200e+002, 2.596999e+002
6.889021e+002, 2.607898e+002
6.893842e+002, 2.610303e+002
6.898663e+002, 2.616225e+002
6.903484e+002, 2.627827e+002
6.908306e+002, 2.639853e+002
6.913127e+002, 2.647953e+002
6.917948e+002, 2.653307e+002
6.922769e+002, 2.662112e+002
6.927590e+002, 2.677251e+002
6.932411e+002, 2.691365e+002
6.937233e+002, 2.701477e+002
6.942054e+002, 2.712888e+002
6.946875e+002, 2.732823e+002
6.951696e+002, 2.756607e+002
6.956517e+002, 2.771174e+002
6.961339e+002, 2.768235e+002
6.966160e+002, 2.762337e+002
6.970981e+002, 2.770903e+002
6.975802e+002, 2.790127e+002
6.980623e+002, 2.804676e+002
6.985444e+002, 2.811448e+002
6.990266e+002, 2.825397e+002
6.995087e+002, 2.860256e+002
6.999908e+002, 2.908369e+002
7.004729e+002, 2.939943e+002
7.009550e+002, 2.937278e+002
7.014371e+002, 2.944747e+002
7.019193e+002, 2.966918e+002
7.024014e+002, 2.995602e+002
7.028835e+002, 3.031253e+002
7.033656e+002, 3.068545e+002
7.038477e+002, 3.097774e+002
7.043298e+002, 3.114142e+002
7.048120e+002, 3.125513e+002
7.052941e+002, 3.144329e+002
7.057762e+002, 3.167077e+002
7.062583e+002, 3.174517e+002
7.067404e+002, 3.163069e+002
7.072225e+002, 3.149522e+002
7.077046e+002, 3.146204e+002
7.081867e+002, 3.145362e+002
7.086688e+002, 3.125860e+002
7.091509e+002, 3.079542e+002
7.096331e+002, 3.036498e+002
7.101152e+002, 3.002504e+002
7.105973e+002, 2.968256e+002
7.110794e+002, 2.930961e+002
7.115615e+002, 2.888813e+002
7.120436e+002, 2.836432e+002
7.125258e+002, 2.772018e+002
7.130079e+002, 2.710194e+002
7.134900e+002, 2.673680e+002
7.139721e+002, 2.656019e+002
7.144542e+002, 2.616233e+002
7.149363e+002, 2.548880e+002
7.154185e+002, 2.488681e+002
7.159006e+002, 2.454839e+002
7.163827e+002, 2.433984e+002
7.168648e+002, 2.402081e+002
7.173469e+002, 2.355955e+002
7.178290e+002, 2.319421e+002
7.183112e+002, 2.303449e+002
7.187933e+002, 2.288048e+002
7.192754e+002, 2.262083e+002
7.197575e+002, 2.230959e+002
7.202396e+002, 2.202282e+002
7.207217e+002, 2.178367e+002
7.212039e+002, 2.157956e+002
7.216860e+002, 2.142246e+002
7.221681e+002, 2.128485e+002
7.226502e+002, 2.102496e+002
7.231323e+002, 2.061349e+002
7.236144e+002, 2.032336e+002
7.240966e+002, 2.029634e+002
7.245787e+002, 2.034311e+002
7.250608e+002, 2.023331e+002
7.255429e+002, 1.996997e+002
7.260250e+002, 1.975866e+002
7.265071e+002, 1.958983e+002
7.269893e+002, 1.949812e+002
7.274714e+002, 1.956236e+002
7.279535e+002, 1.967093e+002
7.284356e+002, 1.970664e+002
7.289177e+002, 1.965244e+002
7.293998e+002, 1.954196e+002
7.298820e+002, 1.938147e+002
7.303641e+002, 1.921411e+002
7.308462e+002, 1.916250e+002
7.313283e+002, 1.923263e+002
7.318104e+002, 1.923588e+002
7.322925e+002, 1.910938e+002
7.327747e+002, 1.897232e+002
7.332568e+002, 1.894193e+002
7.337389e+002, 1.898674e+002
7.342210e+002, 1.893897e+002
7.347031e+002, 1.869367e+002
7.351852e+002, 1.851884e+002
7.356674e+002, 1.848288e+002
7.361495e+002, 1.852591e+002
7.366316e+002, 1.865358e+002
7.371137e+002, 1.881399e+002
7.375958e+002, 1.888513e+002
7.380779e+002, 1.880099e+002
7.385601e+002, 1.866239e+002
7.390422e+002, 1.863122e+002
7.395243e+002, 1.869243e+002
7.400064e+002, 1.869300e+002
7.404885e+002, 1.860995e+002
7.409706e+002, 1.851659e+002
7.414528e+002, 1.845025e+002
7.419349e+002, 1.840206e+002
7.424170e+002, 1.834436e+002
7.428991e+002, 1.825201e+002
7.433812e+002, 1.823506e+002
7.438633e+002, 1.837888e+002
7.443455e+002, 1.852077e+002
7.448276e+002, 1.861331e+002
7.453097e+002, 1.863281e+002
7.457918e+002, 1.849597e+002
7.462739e+002, 1.820398e+002
7.467560e+002, 1.798014e+002
7.472382e+002, 1.811175e+002
7.477203e+002, 1.846812e+002
7.482024e+002, 1.863445e+002
7.486845e+002, 1.860641e+002
7.491666e+002, 1.858037e+002
7.496487e+002, 1.863325e+002
7.501309e+002, 1.868221e+002
7.506130e+002, 1.861070e+002
7.510951e+002, 1.840753e+002
7.515772e+002, 1.830763e+002
7.520593e+002, 1.836073e+002
7.525414e+002, 1.844286e+002
7.530236e+002, 1.857608e+002
7.535057e+002, 1.869117e+002
7.539878e+002, 1.870596e+002
7.544699e+002, 1.863776e+002
7.549520e+002, 1.858116e+002
7.554341e+002, 1.858925e+002
7.559163e+002, 1.863445e+002
7.563984e+002, 1.868712e+002
7.568805e+002, 1.874468e+002
7.573626e+002, 1.880644e+002
7.578447e+002, 1.887567e+002
7.583268e+002, 1.889030e+002
7.588090e+002, 1.878384e+002
7.592911e+002, 1.861175e+002
7.597732e+002, 1.856007e+002
7.602553e+002, 1.869018e+002
7.607374e+002, 1.883322e+002
7.612195e+002, 1.904898e+002
7.617017e+002, 1.921420e+002
7.621838e+002, 1.923849e+002
7.626659e+002, 1.918566e+002
7.631480e+002, 1.915488e+002
7.636301e+002, 1.917339e+002
7.641122e+002, 1.921254e+002
7.645944e+002, 1.927345e+002
7.650765e+002, 1.932998e+002
7.655586e+002, 1.932796e+002
7.660407e+002, 1.927719e+002
7.665228e+002, 1.923231e+002
7.670049e+002, 1.921197e+002
7.674871e+002, 1.923526e+002
7.679692e+002, 1.934236e+002
7.684513e+002, 1.954117e+002
7.689334e+002, 1.962837e+002
7.694155e+002, 1.952912e+002
7.698976e+002, 1.943919e+002
7.703798e+002, 1.940302e+002
7.708619e+002, 1.939000e+002
7.713440e+002, 1.935957e+002
7.718261e+002, 1.932562e+002
7.723082e+002, 1.936584e+002
7.727903e+002, 1.959264e+002
7.732725e+002, 1.978675e+002
7.737546e+002, 1.974869e+002
7.742367e+002, 1.959917e+002
7.747188e+002, 1.952011e+002
7.752009e+002, 1.953394e+002
7.756830e+002, 1.957415e+002
7.761652e+002, 1.959582e+002
7.766473e+002, 1.962238e+002
7.771294e+002, 1.972760e+002
7.776115e+002, 1.993598e+002
7.780936e+002, 2.005905e+002
7.785757e+002, 2.006443e+002
7.790579e+002, 2.002062e+002
7.795400e+002, 1.992678e+002
7.800221e+002, 1.982255e+002
7.805042e+002, 1.978809e+002
7.809863e+002, 1.984939e+002
7.814684e+002, 1.985966e+002
7.819506e+002, 1.971528e+002
7.824327e+002, 1.957732e+002
7.829148e+002, 1.954734e+002
7.833969e+002, 1.959584e+002
7.838790e+002, 1.967250e+002
7.843611e+002, 1.976028e+002
7.848433e+002, 1.986026e+002
7.853254e+002, 1.999491e+002
7.858075e+002, 2.012929e+002
7.862896e+002, 2.013728e+002
7.867717e+002, 2.001679e+002
7.872538e+002, 1.991745e+002
7.877360e+002, 1.988764e+002
7.882181e+002, 1.984870e+002
7.887002e+002, 1.969817e+002
7.891823e+002, 1.946454e+002
7.896644e+002, 1.939590e+002
7.901465e+002, 1.967531e+002
7.906286e+002, 1.984827e+002
7.911107e+002, 1.984096e+002
7.915928e+002, 1.975491e+002
7.920750e+002, 1.960624e+002
7.925571e+002, 1.944109e+002
7.930392e+002, 1.934059e+002
7.935213e+002, 1.933899e+002
7.940034e+002, 1.936365e+002
7.944855e+002, 1.934883e+002
7.949677e+002, 1.931770e+002
7.954498e+002, 1.931866e+002
7.959319e+002, 1.934906e+002
7.964140e+002, 1.937204e+002
7.968961e+002, 1.937209e+002
7.973782e+002, 1.936112e+002
7.978604e+002, 1.935322e+002
7.983425e+002, 1.934771e+002
7.988246e+002, 1.936368e+002
7.993067e+002, 1.943314e+002
7.997888e+002, 1.946597e+002
8.002709e+002, 1.938123e+002
8.007531e+002, 1.929801e+002
8.012352e+002, 1.932475e+002
8.017173e+002, 1.943916e+002
8.021994e+002, 1.951820e+002
8.026815e+002, 1.947810e+002
8.031636e+002, 1.947160e+002
8.036458e+002, 1.963018e+002
8.041279e+002, 1.983268e+002
8.046100e+002, 1.993461e+002
8.050921e+002, 1.993789e+002
8.055742e+002, 1.991205e+002
8.060563e+002, 1.989239e+002
8.065385e+002, 1.988979e+002
8.070206e+002, 1.992025e+002
8.075027e+002, 1.998351e+002
8.079848e+002, 2.008743e+002
8.084669e+002, 2.024654e+002
8.089490e+002, 2.037328e+002
8.094312e+002, 2.041964e+002
8.099133e+002, 2.042528e+002
8.103954e+002, 2.044050e+002
8.108775e+002, 2.046094e+002
8.113596e+002, 2.052714e+002
8.118417e+002, 2.064779e+002
8.123239e+002, 2.080170e+002
8.128060e+002, 2.101444e+002
8.132881e+002, 2.123520e+002
8.137702e+002, 2.142380e+002
8.142523e+002, 2.157338e+002
8.147344e+002, 2.167395e+002
8.152166e+002, 2.167615e+002
8.156987e+002, 2.172165e+002
8.161808e+002, 2.201172e+002
8.166629e+002, 2.244225e+002
8.171450e+002, 2.277839e+002
8.176271e+002, 2.299942e+002
8.181093e+002, 2.321606e+002
8.185914e+002, 2.349506e+002
8.190735e+002, 2.378266e+002
8.195556e+002, 2.395332e+002
8.200377e+002, 2.396780e+002
8.205198e+002, 2.411682e+002
8.210020e+002, 2.443843e+002
8.214841e+002, 2.482790e+002
8.219662e+002, 2.534366e+002
8.224483e+002, 2.583800e+002
8.229304e+002, 2.612352e+002
8.234125e+002, 2.620634e+002
8.238947e+002, 2.629517e+002
8.243768e+002, 2.637386e+002
8.248589e+002, 2.653431e+002
8.253410e+002, 2.691425e+002
8.258231e+002, 2.733454e+002
8.263052e+002, 2.755764e+002
8.267874e+002, 2.761366e+002
8.272695e+002, 2.773234e+002
8.277516e+002, 2.805775e+002
8.282337e+002, 2.843152e+002
8.287158e+002, 2.863246e+002
8.291979e+002, 2.868875e+002
8.296801e+002, 2.870415e+002
8.301622e+002, 2.868748e+002
8.306443e+002, 2.867529e+002
8.311264e+002, 2.869044e+002
8.316085e+002, 2.870457e+002
8.320906e+002, 2.866843e+002
8.325728e+002, 2.857442e+002
8.330549e+002, 2.848300e+002
8.335370e+002, 2.833990e+002
8.340191e+002, 2.828090e+002
8.345012e+002, 2.843983e+002
8.349833e+002, 2.860710e+002
8.354655e+002, 2.859658e+002
8.359476e+002, 2.843074e+002
8.364297e+002, 2.827077e+002
8.369118e+002, 2.818253e+002
8.373939e+002, 2.808229e+002
8.378760e+002, 2.786739e+002
8.383582e+002, 2.765347e+002
8.388403e+002, 2.761529e+002
8.393224e+002, 2.770859e+002
8.398045e+002, 2.774844e+002
8.402866e+002, 2.764764e+002
8.407687e+002, 2.747856e+002
8.412509e+002, 2.735169e+002
8.417330e+002, 2.724810e+002
8.422151e+002, 2.702398e+002
8.426972e+002, 2.666565e+002
8.431793e+002, 2.639946e+002
8.436614e+002, 2.631842e+002
8.441436e+002, 2.633621e+002
8.446257e+002, 2.637856e+002
8.451078e+002, 2.644242e+002
8.455899e+002, 2.639360e+002
8.460720e+002, 2.613001e+002
8.465541e+002, 2.590167e+002
8.470363e+002, 2.581009e+002
8.475184e+002, 2.568303e+002
8.480005e+002, 2.533302e+002
8.484826e+002, 2.487734e+002
8.489647e+002, 2.460052e+002
8.494468e+002, 2.461260e+002
8.499290e+002, 2.463515e+002
8.504111e+002, 2.451547e+002
8.508932e+002, 2.433473e+002
8.513753e+002, 2.414552e+002
8.518574e+002, 2.396906e+002
8.523395e+002, 2.384134e+002
8.528217e+002, 2.377178e+002
8.533038e+002, 2.373490e+002
8.537859e+002, 2.372321e+002
8.542680e+002, 2.371133e+002
8.547501e+002, 2.357815e+002
8.552322e+002, 2.332363e+002
8.557144e+002, 2.322594e+002
8.561965e+002, 2.336917e+002
8.566786e+002, 2.354673e+002
8.571607e+002, 2.358967e+002
8.576428e+002, 2.356096e+002
8.581249e+002, 2.367914e+002
8.586071e+002, 2.412625e+002
8.590892e+002, 2.432092e+002
8.595713e+002, 2.392347e+002
8.600534e+002, 2.367675e+002
8.605355e+002, 2.397738e+002
8.610176e+002, 2.449406e+002
8.614998e+002, 2.481985e+002
8.619819e+002, 2.491444e+002
8.624640e+002, 2.501202e+002
8.629461e+002, 2.524210e+002
8.634282e+002, 2.547018e+002
8.639103e+002, 2.557918e+002
8.643925e+002, 2.564213e+002
8.648746e+002, 2.576707e+002
8.653567e+002, 2.595631e+002
8.658388e+002, 2.612021e+002
8.663209e+002, 2.619564e+002
8.668030e+002, 2.630654e+002
8.672852e+002, 2.669244e+002
8.677673e+002, 2.729287e+002
8.682494e+002, 2.777907e+002
8.687315e+002, 2.812778e+002
8.692136e+002, 2.846319e+002
8.696957e+002, 2.881137e+002
8.701779e+002, 2.926611e+002
8.706600e+002, 2.997040e+002
8.711421e+002, 3.092810e+002
8.716242e+002, 3.180379e+002
8.721063e+002, 3.248942e+002
8.725884e+002, 3.328340e+002
8.730705e+002, 3.426428e+002
8.735526e+002, 3.533399e+002
8.740347e+002, 3.643295e+002
8.745168e+002, 3.757287e+002
8.749990e+002, 3.880464e+002
8.754811e+002, 4.012249e+002
8.759632e+002, 4.155062e+002
8.764453e+002, 4.314948e+002
8.769274e+002, 4.480233e+002
8.774095e+002, 4.634666e+002
8.778917e+002, 4.791230e+002
8.783738e+002, 4.974727e+002
8.788559e+002, 5.188846e+002
8.793380e+002, 5.414772e+002
8.798201e+002, 5.637882e+002
8.803022e+002, 5.864479e+002
8.807844e+002, 6.105441e+002
8.812665e+002, 6.359862e+002
8.817486e+002, 6.628817e+002
8.822307e+002, 6.910736e+002
8.827128e+002, 7.180396e+002
8.831949e+002, 7.422271e+002
8.836771e+002, 7.635361e+002
8.841592e+002, 7.819330e+002
8.846413e+002, 7.977990e+002
8.851234e+002, 8.085944e+002
8.856055e+002, 8.156674e+002
8.860876e+002, 8.141141e+002
8.865698e+002, 8.004634e+002
8.870519e+002, 7.792927e+002
8.875340e+002, 7.542511e+002
8.880161e+002, 7.255568e+002
8.884982e+002, 6.957405e+002
8.889803e+002, 6.650323e+002
8.894625e+002, 6.330390e+002
8.899446e+002, 5.967352e+002
8.904267e+002, 5.617396e+002
8.909088e+002, 5.317044e+002
8.913909e+002, 5.060478e+002
8.918730e+002, 4.835046e+002
8.923552e+002, 4.636125e+002
8.928373e+002, 4.455053e+002
8.933194e+002, 4.283662e+002
8.938015e+002, 4.129014e+002
8.942836e+002, 4.008697e+002
8.947657e+002, 3.908765e+002
8.952479e+002, 3.799308e+002
8.957300e+002, 3.676568e+002
8.962121e+002, 3.560730e+002
8.966942e+002, 3.467781e+002
8.971763e+002, 3.390026e+002
8.976584e+002, 3.312491e+002
8.981406e+002, 3.236073e+002
8.986227e+002, 3.169873e+002
8.991048e+002, 3.116154e+002
8.995869e+002, 3.054752e+002
9.000690e+002, 2.972984e+002
9.005511e+002, 2.886899e+002
9.010333e+002, 2.821529e+002
9.015154e+002, 2.778192e+002
9.019975e+002, 2.725161e+002
9.024796e+002, 2.651763e+002
9.029617e+002, 2.588107e+002
9.034438e+002, 2.544030e+002
9.039260e+002, 2.507272e+002
9.044081e+002, 2.472443e+002
9.048902e+002, 2.438202e+002
9.053723e+002, 2.400278e+002
9.058544e+002, 2.352895e+002
9.063365e+002, 2.317537e+002
9.068187e+002, 2.310951e+002
9.073008e+002, 2.305804e+002
9.077829e+002, 2.280455e+002
9.082650e+002, 2.249361e+002
9.087471e+002, 2.234666e+002
9.092292e+002, 2.238366e+002
9.097114e+002, 2.244148e+002
9.101935e+002, 2.242685e+002
9.106756e+002, 2.238876e+002
9.111577e+002, 2.237704e+002
9.116398e+002, 2.237749e+002
9.121219e+002, 2.234287e+002
9.126041e+002, 2.228828e+002
9.130862e+002, 2.230380e+002
9.135683e+002, 2.243227e+002
9.140504e+002, 2.260745e+002
9.145325e+002, 2.273665e+002
9.150146e+002, 2.283401e+002
9.154968e+002, 2.300091e+002
9.159789e+002, 2.324168e+002
9.164610e+002, 2.343086e+002
9.169431e+002, 2.352929e+002
9.174252e+002, 2.361320e+002
9.179073e+002, 2.374820e+002
9.183895e+002, 2.391776e+002
9.188716e+002, 2.405548e+002
9.193537e+002, 2.411750e+002
9.198358e+002, 2.426806e+002
9.203179e+002, 2.460723e+002
9.208000e+002, 2.489073e+002
9.212822e+002, 2.494038e+002
9.217643e+002, 2.493901e+002
9.222464e+002, 2.509698e+002
9.227285e+002, 2.541021e+002
9.232106e+002, 2.570169e+002
9.236927e+002, 2.592183e+002
9.241749e+002, 2.615117e+002
9.246570e+002, 2.639602e+002
9.251391e+002, 2.667219e+002
9.256212e+002, 2.698443e+002
9.261033e+002, 2.733849e+002
9.265854e+002, 2.774380e+002
9.270676e+002, 2.820354e+002
9.275497e+002, 2.870484e+002
9.280318e+002, 2.936632e+002
9.285139e+002, 2.994930e+002
9.289960e+002, 3.020764e+002
9.294781e+002, 3.021081e+002
9.299603e+002, 3.008893e+002
9.304424e+002, 2.987321e+002
9.309245e+002, 2.954789e+002
9.314066e+002, 2.909539e+002
9.318887e+002, 2.857477e+002
9.323708e+002, 2.806666e+002
9.328530e+002, 2.757273e+002
9.333351e+002, 2.711585e+002
9.338172e+002, 2.669330e+002
9.342993e+002, 2.620886e+002
9.347814e+002, 2.562149e+002
9.352635e+002, 2.506162e+002
9.357457e+002, 2.469420e+002
9.362278e+002, 2.446628e+002
9.367099e+002, 2.404939e+002
9.371920e+002, 2.339028e+002
9.376741e+002, 2.277418e+002
9.381563e+002, 2.225188e+002
9.386384e+002, 2.172553e+002
9.391205e+002, 2.110068e+002
9.396026e+002, 2.046529e+002
9.400847e+002, 1.998795e+002
9.405668e+002, 1.970655e+002
9.410490e+002, 1.936432e+002
9.415311e+002, 1.886780e+002
9.420132e+002, 1.843956e+002
9.424953e+002, 1.814231e+002
9.429774e+002, 1.790824e+002
9.434595e+002, 1.768454e+002
9.439417e+002, 1.748346e+002
9.444238e+002, 1.735567e+002
9.449059e+002, 1.733404e+002
9.453880e+002, 1.729591e+002
9.458701e+002, 1.719222e+002
9.463522e+002, 1.706357e+002
9.468344e+002, 1.689134e+002
9.473165e+002, 1.673709e+002
9.477986e+002, 1.670324e+002
9.482807e+002, 1.677989e+002
9.487628e+002, 1.684294e+002
9.492449e+002, 1.681593e+002
9.497271e+002, 1.677938e+002
9.502092e+002, 1.682374e+002
9.506913e+002, 1.690047e+002
9.511734e+002, 1.694365e+002
9.516555e+002, 1.694864e+002
9.521376e+002, 1.692222e+002
9.526198e+002, 1.686761e+002
9.531019e+002, 1.678473e+002
9.535840e+002, 1.664641e+002
9.540661e+002, 1.651317e+002
9.545482e+002, 1.657430e+002
9.550303e+002, 1.679185e+002
9.555124e+002, 1.691104e+002
9.559945e+002, 1.689637e+002
9.564766e+002, 1.682961e+002
9.569587e+002, 1.674646e+002
9.574409e+002, 1.668120e+002
9.579230e+002, 1.669915e+002
9.584051e+002, 1.679809e+002
9.588872e+002, 1.683691e+002
9.593693e+002, 1.679723e+002
9.598514e+002, 1.677630e+002
9.603336e+002, 1.679535e+002
9.608157e+002, 1.683832e+002
9.612978e+002, 1.690381e+002
9.617799e+002, 1.697812e+002
9.622620e+002, 1.702502e+002
9.627441e+002, 1.705142e+002
9.632263e+002, 1.702746e+002
9.637084e+002, 1.685612e+002
9.641905e+002, 1.676728e+002
9.646726e+002, 1.685092e+002
9.651547e+002, 1.701526e+002
9.656368e+002, 1.721880e+002
9.661190e+002, 1.744057e+002
9.666011e+002, 1.759421e+002
9.670832e+002, 1.761311e+002
9.675653e+002, 1.767884e+002
9.680474e+002, 1.787524e+002
9.685295e+002, 1.807984e+002
9.690117e+002, 1.820642e+002
9.694938e+002, 1.830736e+002
9.699759e+002, 1.842772e+002
9.704580e+002, 1.858880e+002
9.709401e+002, 1.886333e+002
9.714222e+002, 1.939194e+002
9.719044e+002, 1.986403e+002
9.723865e+002, 2.006925e+002
9.728686e+002, 2.013078e+002
9.733507e+002, 2.016767e+002
9.738328e+002, 2.017340e+002
9.743149e+002, 2.009756e+002
9.747971e+002, 1.992806e+002
9.752792e+002, 1.970477e+002
9.757613e+002, 1.943947e+002
9.762434e+002, 1.916056e+002
9.767255e+002, 1.890660e+002
9.772076e+002, 1.866811e+002
9.776898e+002, 1.840360e+002
9.781719e+002, 1.812424e+002
9.786540e+002, 1.791264e+002
9.791361e+002, 1.780659e+002
9.796182e+002, 1.775689e+002
9.801003e+002, 1.772652e+002
9.805825e+002, 1.769420e+002
9.810646e+002, 1.755052e+002
9.815467e+002, 1.732024e+002
9.820288e+002, 1.723223e+002
9.825109e+002, 1.733150e+002
9.829930e+002, 1.740547e+002
9.834752e+002, 1.730848e+002
9.839573e+002, 1.713991e+002
9.844394e+002, 1.710750e+002
9.849215e+002, 1.721304e+002
9.854036e+002, 1.717506e+002
9.858857e+002, 1.695294e+002
9.863679e+002, 1.683949e+002
9.868500e+002, 1.693573e+002
9.873321e+002, 1.707921e+002
9.878142e+002, 1.713863e+002
9.882963e+002, 1.714429e+002
9.887784e+002, 1.720143e+002
9.892606e+002, 1.735636e+002
9.897427e+002, 1.738753e+002
9.902248e+002, 1.720426e+002
9.907069e+002, 1.707381e+002
9.911890e+002, 1.711304e+002
9.916711e+002, 1.720076e+002
9.921533e+002, 1.722964e+002
9.926354e+002, 1.720624e+002
9.931175e+002, 1.716639e+002
9.935996e+002, 1.705358e+002
9.940817e+002, 1.702623e+002
9.945638e+002, 1.720423e+002
9.950460e+002, 1.732716e+002
9.955281e+002, 1.725706e+002
9.960102e+002, 1.710833e+002
9.964923e+002, 1.697385e+002
9.969744e+002, 1.686928e+002
9.974565e+002, 1.685252e+002
9.979387e+002, 1.704332e+002
9.984208e+002, 1.714112e+002
9.989029e+002, 1.696839e+002
9.993850e+002, 1.678677e+002
9.998671e+002, 1.676483e+002
1.000349e+003, 1.683630e+002
1.000831e+003, 1.690634e+002
1.001313e+003, 1.695755e+002
1.001796e+003, 1.699851e+002
1.002278e+003, 1.706263e+002
1.002760e+003, 1.707131e+002
1.003242e+003, 1.692674e+002
1.003724e+003, 1.675533e+002
1.004206e+003, 1.667106e+002
1.004688e+003, 1.665388e+002
1.005170e+003, 1.665108e+002
1.005653e+003, 1.664583e+002
1.006135e+003, 1.662865e+002
1.006617e+003, 1.659021e+002
1.007099e+003, 1.654155e+002
1.007581e+003, 1.646383e+002
1.008063e+003, 1.640068e+002
1.008545e+003, 1.645838e+002
1.009027e+003, 1.658472e+002
1.009509e+003, 1.659538e+002
1.009992e+003, 1.643639e+002
1.010474e+003, 1.628393e+002
1.010956e+003, 1.629856e+002
1.011438e+003, 1.640337e+002
1.011920e+003, 1.654437e+002
1.012402e+003, 1.666681e+002
1.012884e+003, 1.659830e+002
1.013366e+003, 1.636668e+002
1.013849e+003, 1.618524e+002
1.014331e+003, 1.614684e+002
1.014813e+003, 1.617789e+002
1.015295e+003, 1.620062e+002
1.015777e+003, 1.622750e+002
1.016259e+003, 1.629555e+002
1.016741e+003, 1.639717e+002
1.017223e+003, 1.651878e+002
1.017705e+003, 1.664855e+002
1.018188e+003, 1.668473e+002
1.018670e+003, 1.657108e+002
1.019152e+003, 1.640511e+002
1.019634e+003, 1.630698e+002
1.020116e+003, 1.627700e+002
1.020598e+003, 1.633161e+002
1.021080e+003, 1.646727e+002
1.021562e+003, 1.660048e+002
1.022044e+003, 1.671814e+002
1.022527e+003, 1.681018e+002
1.023009e+003, 1.687106e+002
1.023491e+003, 1.690151e+002
1.023973e+003, 1.689496e+002
1.024455e+003, 1.685554e+002
1.024937e+003, 1.685655e+002
1.025419e+003, 1.690327e+002
1.025901e+003, 1.694775e+002
1.026384e+003, 1.698345e+002
1.026866e+003, 1.700109e+002
1.027348e+003, 1.698241e+002
1.027830e+003, 1.697182e+002
1.028312e+003, 1.706798e+002
1.028794e+003, 1.728081e+002
1.029276e+003, 1.735243e+002
1.029758e+003, 1.722585e+002
1.030240e+003, 1.716258e+002
1.030723e+003, 1.722840e+002
1.031205e+003, 1.732469e+002
1.031687e+003, 1.738104e+002
1.032169e+003, 1.743277e+002
1.032651e+003, 1.755215e+002
1.033133e+003, 1.774346e+002
1.033615e+003, 1.796914e+002
1.034097e+003, 1.827198e+002
1.034579e+003, 1.850925e+002
1.035062e+003, 1.858684e+002
1.035544e+003, 1.869320e+002
1.036026e+003, 1.893632e+002
1.036508e+003, 1.930123e+002
1.036990e+003, 1.978678e+002
1.037472e+003, 2.044452e+002
1.037954e+003, 2.093001e+002
1.038436e+003, 2.119818e+002
1.038919e+003, 2.136100e+002
1.039401e+003, 2.146049e+002
1.039883e+003, 2.143399e+002
1.040365e+003, 2.119241e+002
1.040847e+003, 2.081057e+002
1.041329e+003, 2.045127e+002
1.041811e+003, 2.012850e+002
1.042293e+003, 1.974865e+002
1.042776e+003, 1.919935e+002
1.043258e+003, 1.874623e+002
1.043740e+003, 1.852688e+002
1.044222e+003, 1.832960e+002
1.044704e+003, 1.798209e+002
1.045186e+003, 1.757295e+002
1.045668e+003, 1.727923e+002
1.046150e+003, 1.712104e+002
1.046632e+003, 1.702100e+002
1.047115e+003, 1.699232e+002
1.047597e+003, 1.699118e+002
1.048079e+003, 1.702162e+002
1.048561e+003, 1.706196e+002
1.049043e+003, 1.710697e+002
1.049525e+003, 1.714787e+002
1.050007e+003, 1.716545e+002
1.050489e+003, 1.715417e+002
1.050971e+003, 1.715966e+002
1.051454e+003, 1.718519e+002
1.051936e+003, 1.723593e+002
1.052418e+003, 1.733681e+002
1.052900e+003, 1.744090e+002
1.053382e+003, 1.751683e+002
1.053864e+003, 1.757072e+002
1.054346e+003, 1.762062e+002
1.054828e+003, 1.766976e+002
1.055311e+003, 1.769263e+002
1.055793e+003, 1.759856e+002
1.056275e+003, 1.759105e+002
1.056757e+003, 1.783934e+002
1.057239e+003, 1.810284e+002
1.057721e+003, 1.818913e+002
1.058203e+003, 1.816609e+002
1.058685e+003, 1.816989e+002
1.059167e+003, 1.822172e+002
1.059650e+003, 1.826190e+002
1.060132e+003, 1.829141e+002
1.060614e+003, 1.827847e+002
1.061096e+003, 1.818168e+002
1.061578e+003, 1.806657e+002
1.062060e+003, 1.792882e+002
1.062542e+003, 1.783206e+002
1.063024e+003, 1.792090e+002
1.063506e+003, 1.819477e+002
1.063989e+003, 1.836275e+002
1.064471e+003, 1.823241e+002
1.064953e+003, 1.810139e+002
1.065435e+003, 1.810594e+002
1.065917e+003, 1.814226e+002
1.066399e+003, 1.810712e+002
1.066881e+003, 1.806190e+002
1.067363e+003, 1.813613e+002
1.067846e+003, 1.832826e+002
1.068328e+003, 1.846342e+002
1.068810e+003, 1.845203e+002
1.069292e+003, 1.841539e+002
1.069774e+003, 1.832579e+002
1.070256e+003, 1.831463e+002
1.070738e+003, 1.858642e+002
1.071220e+003, 1.893965e+002
1.071703e+003, 1.905377e+002
1.072185e+003, 1.893003e+002
1.072667e+003, 1.887175e+002
1.073149e+003, 1.901486e+002
1.073631e+003, 1.918054e+002
1.074113e+003, 1.931459e+002
1.074595e+003, 1.941108e+002
1.075077e+003, 1.944420e+002
1.075559e+003, 1.945071e+002
1.076042e+003, 1.944046e+002
1.076524e+003, 1.944582e+002
1.077006e+003, 1.958028e+002
1.077488e+003, 1.992103e+002
1.077970e+003, 2.026938e+002
1.078452e+003, 2.056385e+002
1.078934e+003, 2.080264e+002
1.079416e+003, 2.094307e+002
1.079898e+003, 2.105828e+002
1.080380e+003, 2.124317e+002
1.080863e+003, 2.148583e+002
1.081345e+003, 2.171217e+002
1.081827e+003, 2.190088e+002
1.082309e+003, 2.206201e+002
1.082791e+003, 2.214934e+002
1.083273e+003, 2.227034e+002
1.083755e+003, 2.251385e+002
1.084237e+003, 2.280660e+002
1.084720e+003, 2.311607e+002
1.085202e+003, 2.339541e+002
1.085684e+003, 2.353885e+002
1.086166e+003, 2.350430e+002
1.086648e+003, 2.347531e+002
1.087130e+003, 2.354700e+002
1.087612e+003, 2.362158e+002
1.088094e+003, 2.368064e+002
1.088577e+003, 2.369160e+002
1.089059e+003, 2.359396e+002
1.089541e+003, 2.343542e+002
1.090023e+003, 2.333477e+002
1.090505e+003, 2.331609e+002
1.090987e+003, 2.322233e+002
1.091469e+003, 2.288985e+002
1.091951e+003, 2.260965e+002
1.092433e+003, 2.253667e+002
1.092916e+003, 2.253444e+002
1.093398e+003, 2.249829e+002
1.093880e+003, 2.245612e+002
1.094362e+003, 2.249859e+002
1.094844e+003, 2.262489e+002
1.095326e+003, 2.265762e+002
1.095808e+003, 2.249325e+002
1.096290e+003, 2.229779e+002
1.096772e+003, 2.205033e+002
1.097255e+003, 2.186950e+002
1.097737e+003, 2.184532e+002
1.098219e+003, 2.192287e+002
1.098701e+003, 2.205851e+002
1.099183e+003, 2.222762e+002
1.099665e+003, 2.233698e+002
1.100147e+003, 2.233481e+002
1.100629e+003, 2.233485e+002
1.101112e+003, 2.238090e+002
1.101594e+003, 2.241790e+002
1.102076e+003, 2.238820e+002
1.102558e+003, 2.235905e+002
1.103040e+003, 2.240618e+002
1.103522e+003, 2.251843e+002
1.104004e+003, 2.263863e+002
1.104486e+003, 2.276679e+002
1.104969e+003, 2.287686e+002
1.105451e+003, 2.293331e+002
1.105933e+003, 2.301082e+002
1.106415e+003, 2.316119e+002
1.106897e+003, 2.331924e+002
1.107379e+003, 2.344176e+002
1.107861e+003, 2.352911e+002
1.108343e+003, 2.357348e+002
1.108825e+003, 2.355450e+002
1.109307e+003, 2.360918e+002
1.109790e+003, 2.386024e+002
1.110272e+003, 2.402794e+002
1.110754e+003, 2.398473e+002
1.111236e+003, 2.391810e+002
1.111718e+003, 2.389478e+002
1.112200e+003, 2.394201e+002
1.112682e+003, 2.415609e+002
1.113164e+003, 2.455430e+002
1.113647e+003, 2.474615e+002
1.114129e+003, 2.451801e+002
1.114611e+003, 2.444021e+002
1.115093e+003, 2.466797e+002
1.115575e+003, 2.489229e+002
1.116057e+003, 2.500148e+002
1.116539e+003, 2.502276e+002
1.117021e+003, 2.493401e+002
1.117504e+003, 2.477136e+002
1.117986e+003, 2.481416e+002
1.118468e+003, 2.519236e+002
1.118950e+003, 2.546397e+002
1.119432e+003, 2.558986e+002
1.119914e+003, 2.567956e+002
1.120396e+003, 2.577040e+002
1.120878e+003, 2.582667e+002
1.121360e+003, 2.578736e+002
1.121843e+003, 2.571253e+002
1.122325e+003, 2.579235e+002
1.122807e+003, 2.606579e+002
1.123289e+003, 2.624389e+002
1.123771e+003, 2.627545e+002
1.124253e+003, 2.640406e+002
1.124735e+003, 2.672498e+002
1.125217e+003, 2.701610e+002
1.125699e+003, 2.712561e+002
1.126182e+003, 2.714421e+002
1.126664e+003, 2.722143e+002
1.127146e+003, 2.735531e+002
1.127628e+003, 2.751894e+002
1.128110e+003, 2.771809e+002
1.128592e+003, 2.788526e+002
1.129074e+003, 2.800807e+002
1.129556e+003, 2.811964e+002
1.130039e+003, 2.823566e+002
1.130521e+003, 2.833253e+002
1.131003e+003, 2.837014e+002
1.131485e+003, 2.838668e+002
1.131967e+003, 2.855769e+002
1.132449e+003, 2.886621e+002
1.132931e+003, 2.897804e+002
1.133413e+003, 2.888089e+002
1.133896e+003, 2.882876e+002
1.134378e+003, 2.889940e+002
1.134860e+003, 2.900343e+002
1.135342e+003, 2.906808e+002
1.135824e+003, 2.914315e+002
1.136306e+003, 2.935692e+002
1.136788e+003, 2.965417e+002
1.137270e+003, 2.982513e+002
1.137752e+003, 2.987881e+002
1.138234e+003, 2.982958e+002
1.138717e+003, 2.970914e+002
1.139199e+003, 2.968789e+002
1.139681e+003, 2.985311e+002
1.140163e+003, 3.015410e+002
1.140645e+003, 3.061550e+002
1.141127e+003, 3.110202e+002
1.141609e+003, 3.136309e+002
1.142091e+003, 3.146036e+002
1.142574e+003, 3.150326e+002
1.143056e+003, 3.151432e+002
1.143538e+003, 3.148388e+002
1.144020e+003, 3.142327e+002
1.144502e+003, 3.144426e+002
1.144984e+003, 3.166452e+002
1.145466e+003, 3.190601e+002
1.145948e+003, 3.195529e+002
1.146431e+003, 3.193996e+002
1.146913e+003, 3.200093e+002
1.147395e+003, 3.213018e+002
1.147877e+003, 3.234675e+002
1.148359e+003, 3.260167e+002
1.148841e+003, 3.268777e+002
1.149323e+003, 3.247838e+002
1.149805e+003, 3.234150e+002
1.150287e+003, 3.257129e+002
1.150770e+003, 3.288615e+002
1.151252e+003, 3.310671e+002
1.151734e+003, 3.328478e+002
1.152216e+003, 3.345724e+002
1.152698e+003, 3.364781e+002
1.153180e+003, 3.391436e+002
1.153662e+003, 3.426801e+002
1.154144e+003, 3.455056e+002
1.154626e+003, 3.466729e+002
1.155109e+003, 3.476623e+002
1.155591e+003, 3.494913e+002
1.156073e+003, 3.507128e+002
1.156555e+003, 3.494405e+002
1.157037e+003, 3.476734e+002
1.157519e+003, 3.483306e+002
1.158001e+003, 3.511559e+002
1.158483e+003, 3.530912e+002
1.158966e+003, 3.527028e+002
1.159448e+003, 3.539096e+002
1.159930e+003, 3.586984e+002
1.160412e+003, 3.627187e+002
1.160894e+003, 3.645287e+002
1.161376e+003, 3.655314e+002
1.161858e+003, 3.665314e+002
1.162340e+003, 3.675534e+002
1.162822e+003, 3.685023e+002
1.163305e+003, 3.692401e+002
1.163787e+003, 3.715922e+002
1.164269e+003, 3.765568e+002
1.164751e+003, 3.800967e+002
1.165233e+003, 3.812339e+002
1.165715e+003, 3.822343e+002
1.166197e+003, 3.842656e+002
1.166679e+003, 3.863513e+002
1.167161e+003, 3.872531e+002
1.167644e+003, 3.873354e+002
1.168126e+003, 3.879941e+002
1.168608e+003, 3.892177e+002
1.169090e+003, 3.919198e+002
1.169572e+003, 3.962220e+002
1.170054e+003, 3.980676e+002
1.170536e+003, 3.962857e+002
1.171018e+003, 3.945082e+002
1.171500e+003, 3.952060e+002
1.171983e+003, 3.975373e+002
1.172465e+003, 4.008031e+002
1.172947e+003, 4.043510e+002
1.173429e+003, 4.053754e+002
1.173911e+003, 4.047680e+002
1.174393e+003, 4.061053e+002
1.174875e+003, 4.094834e+002
1.175357e+003, 4.129176e+002
1.175840e+003, 4.156252e+002
1.176322e+003, 4.176795e+002
1.176804e+003, 4.190329e+002
1.177286e+003, 4.200622e+002
1.177768e+003, 4.208385e+002
1.178250e+003, 4.218815e+002
1.178732e+003, 4.244006e+002
1.179214e+003, 4.275959e+002
1.179697e+003, 4.297603e+002
1.180179e+003, 4.308478e+002
1.180661e+003, 4.319470e+002
1.181143e+003, 4.334800e+002
1.181625e+003, 4.352796e+002
1.182107e+003, 4.372675e+002
1.182589e+003, 4.394474e+002
1.183071e+003, 4.421335e+002
1.183553e+003, 4.447208e+002
1.184036e+003, 4.462894e+002
1.184518e+003, 4.474688e+002
1.185000e+003, 4.497302e+002
1.185482e+003, 4.531829e+002
1.185964e+003, 4.558625e+002
1.186446e+003, 4.571923e+002
1.186928e+003, 4.579584e+002
1.187410e+003, 4.563543e+002
1.187892e+003, 4.566343e+002
1.188375e+003, 4.628095e+002
1.188857e+003, 4.697054e+002
1.189339e+003, 4.715790e+002
1.189821e+003, 4.706766e+002
1.190303e+003, 4.738635e+002
1.190785e+003, 4.824531e+002
1.191267e+003, 4.872507e+002
1.191749e+003, 4.871574e+002
1.192232e+003, 4.860045e+002
1.192714e+003, 4.834759e+002
1.193196e+003, 4.827118e+002
1.193678e+003, 4.855058e+002
1.194160e+003, 4.902409e+002
1.194642e+003, 4.952492e+002
1.195124e+003, 5.001566e+002
1.195606e+003, 5.032030e+002
1.196089e+003, 5.044713e+002
1.196571e+003, 5.060614e+002
1.197053e+003, 5.080862e+002
1.197535e+003, 5.110634e+002
1.198017e+003, 5.150708e+002
1.198499e+003, 5.195052e+002
1.198981e+003, 5.240562e+002
1.199463e+003, 5.278817e+002
1.199945e+003, 5.288763e+002
1.200427e+003, 5.290936e+002
1.200910e+003, 5.339464e+002
1.201392e+003, 5.407429e+002
1.201874e+003, 5.427216e+002
1.202356e+003, 5.411038e+002
1.202838e+003, 5.413949e+002
1.203320e+003, 5.450829e+002
1.203802e+003, 5.504081e+002
1.204284e+003, 5.569985e+002
1.204767e+003, 5.629370e+002
1.205249e+003, 5.665778e+002
1.205731e+003, 5.691404e+002
1.206213e+003, 5.706655e+002
1.206695e+003, 5.723993e+002
1.207177e+003, 5.765876e+002
1.207659e+003, 5.820461e+002
1.208141e+003, 5.850024e+002
1.208624e+003, 5.844885e+002
1.209106e+003, 5.855194e+002
1.209588e+003, 5.901533e+002
1.210070e+003, 5.951344e+002
1.210552e+003, 6.007281e+002
1.211034e+003, 6.054418e+002
1.211516e+003, 6.071280e+002
1.211998e+003, 6.088197e+002
1.212480e+003, 6.141958e+002
1.212963e+003, 6.219824e+002
1.213445e+003, 6.271182e+002
1.213927e+003, 6.288424e+002
1.214409e+003, 6.318136e+002
1.214891e+003, 6.364804e+002
1.215373e+003, 6.405455e+002
1.215855e+003, 6.434880e+002
1.216337e+003, 6.461869e+002
1.216819e+003, 6.490263e+002
1.217302e+003, 6.521740e+002
1.217784e+003, 6.557604e+002
1.218266e+003, 6.599464e+002
1.218748e+003, 6.660892e+002
1.219230e+003, 6.733080e+002
1.219712e+003, 6.762786e+002
1.220194e+003, 6.757676e+002
1.220676e+003, 6.767964e+002
1.221159e+003, 6.805611e+002
1.221641e+003, 6.864031e+002
1.222123e+003, 6.940641e+002
1.222605e+003, 7.018010e+002
1.223087e+003, 7.081378e+002
1.223569e+003, 7.133527e+002
1.224051e+003, 7.165092e+002
1.224533e+003, 7.196984e+002
1.225016e+003, 7.268746e+002
1.225498e+003, 7.356978e+002
1.225980e+003, 7.406318e+002
1.226462e+003, 7.414904e+002
1.226944e+003, 7.437789e+002
1.227426e+003, 7.499611e+002
1.227908e+003, 7.559185e+002
1.228390e+003, 7.599785e+002
1.228872e+003, 7.638283e+002
1.229354e+003, 7.673638e+002
1.229837e+003, 7.717604e+002
1.230319e+003, 7.787028e+002
1.230801e+003, 7.867435e+002
1.231283e+003, 7.932445e+002
1.231765e+003, 7.982816e+002
1.232247e+003, 8.035602e+002
1.232729e+003, 8.089792e+002
1.233211e+003, 8.152003e+002
1.233694e+003, 8.229489e+002
1.234176e+003, 8.288068e+002
1.234658e+003, 8.312329e+002
1.235140e+003, 8.338086e+002
1.235622e+003, 8.390285e+002
1.236104e+003, 8.464626e+002
1.236586e+003, 8.561973e+002
1.237068e+003, 8.670871e+002
1.237551e+003, 8.739576e+002
1.238033e+003, 8.776888e+002
1.238515e+003, 8.817168e+002
1.238997e+003, 8.867250e+002
1.239479e+003, 8.945241e+002
1.239961e+003, 9.050669e+002
1.240443e+003, 9.141546e+002
1.240925e+003, 9.187477e+002
1.241407e+003, 9.230580e+002
1.241890e+003, 9.318026e+002
1.242372e+003, 9.415327e+002
1.242854e+003, 9.493004e+002
1.243336e+003, 9.558047e+002
1.243818e+003, 9.612085e+002
1.244300e+003, 9.665148e+002
1.244782e+003, 9.733141e+002
1.245264e+003, 9.819089e+002
1.245746e+003, 9.918226e+002
1.246229e+003, 1.004130e+003
1.246711e+003, 1.015474e+003
1.247193e+003, 1.024129e+003
1.247675e+003, 1.033390e+003
1.248157e+003, 1.045989e+003
1.248639e+003, 1.057534e+003
1.249121e+003, 1.064115e+003
1.249603e+003, 1.068433e+003
1.250085e+003, 1.075350e+003
1.250568e+003, 1.084741e+003
1.251050e+003, 1.094562e+003
1.251532e+003, 1.104677e+003
1.252014e+003, 1.117280e+003
1.252496e+003, 1.132722e+003
1.252978e+003, 1.146173e+003
1.253460e+003, 1.156193e+003
1.253942e+003, 1.164766e+003
1.254425e+003, 1.172988e+003
1.254907e+003, 1.182676e+003
1.255389e+003, 1.197145e+003
1.255871e+003, 1.214057e+003
1.256353e+003, 1.229209e+003
1.256835e+003, 1.243294e+003
1.257317e+003, 1.256959e+003
1.257799e+003, 1.270586e+003
1.258281e+003, 1.285599e+003
1.258764e+003, 1.301567e+003
1.259246e+003, 1.314677e+003
1.259728e+003, 1.322081e+003
1.260210e+003, 1.331046e+003
1.260692e+003, 1.345112e+003
1.261174e+003, 1.361299e+003
1.261656e+003, 1.378807e+003
1.262138e+003, 1.397365e+003
1.262620e+003, 1.417747e+003
1.263103e+003, 1.438589e+003
1.263585e+003, 1.457635e+003
1.264067e+003, 1.475127e+003
1.264549e+003, 1.491683e+003
1.265031e+003, 1.505822e+003
1.265513e+003, 1.524771e+003
1.265995e+003, 1.550053e+003
1.266477e+003, 1.572856e+003
1.266960e+003, 1.590948e+003
1.267442e+003, 1.608051e+003
1.267924e+003, 1.626062e+003
1.268406e+003, 1.645792e+003
1.268888e+003, 1.668759e+003
1.269370e+003, 1.693649e+003
1.269852e+003, 1.717630e+003
1.270334e+003, 1.741184e+003
1.270817e+003, 1.765493e+003
1.271299e+003, 1.790686e+003
1.271781e+003, 1.817217e+003
1.272263e+003, 1.844668e+003
1.272745e+003, 1.870850e+003
1.273227e+003, 1.894896e+003
1.273709e+003, 1.921174e+003
1.274191e+003, 1.954171e+003
1.274673e+003, 1.987617e+003
1.275156e+003, 2.018236e+003
1.275638e+003, 2.048799e+003
1.276120e+003, 2.081130e+003
1.276602e+003, 2.114694e+003
1.277084e+003, 2.148749e+003
1.277566e+003, 2.183599e+003
1.278048e+003, 2.219377e+003
1.278530e+003, 2.256135e+003
1.279012e+003, 2.293395e+003
1.279495e+003, 2.330438e+003
1.279977e+003, 2.370307e+003
1.280459e+003, 2.413845e+003
1.280941e+003, 2.457425e+003
1.281423e+003, 2.499694e+003
1.281905e+003, 2.542499e+003
1.282387e+003, 2.587829e+003
1.282869e+003, 2.634111e+003
1.283352e+003, 2.677992e+003
1.283834e+003, 2.720738e+003
1.284316e+003, 2.764700e+003
1.284798e+003, 2.810048e+003
##END=



