##NAMES=Yeatmanite
##RRUFFID=R141001
##IDEAL CHEMISTRY=Zn^2+^_6_Mn^2+^_9_Sb^5+^_2_O_12_(SiO_4_)_4_
##LOCALITY=1500 foot level, Sterling mine, Sterling Hill, Ogdensburg, Franklin Mining District, Sussex County, New Jersey, USA
##OWNER=RRUFF
##SOURCE=Rock Currier
##DESCRIPTION=Thin brown or grey platy crystals, associated with yellow adelite. Twinned by a 2-fold around (001). Previously published structure is probably incorrect.
##STATUS=The identification of this mineral has been confirmed by single-crystal X-ray diffraction.
##URL=rruff.info/R141001
8.813672e+001, 2.987489e+002
8.861884e+001, 3.036995e+002
8.910095e+001, 3.079120e+002
8.958307e+001, 3.113694e+002
9.006519e+001, 3.153568e+002
9.054730e+001, 3.211280e+002
9.102942e+001, 3.301825e+002
9.151154e+001, 3.388212e+002
9.199365e+001, 3.423252e+002
9.247577e+001, 3.415097e+002
9.295789e+001, 3.401971e+002
9.344000e+001, 3.409790e+002
9.392212e+001, 3.430552e+002
9.440424e+001, 3.450807e+002
9.488635e+001, 3.476138e+002
9.536847e+001, 3.501301e+002
9.585059e+001, 3.508771e+002
9.633270e+001, 3.497197e+002
9.681482e+001, 3.484701e+002
9.729694e+001, 3.486089e+002
9.777905e+001, 3.501008e+002
9.826117e+001, 3.526399e+002
9.874329e+001, 3.563430e+002
9.922540e+001, 3.610301e+002
9.970752e+001, 3.657386e+002
1.001896e+002, 3.704771e+002
1.006718e+002, 3.750245e+002
1.011539e+002, 3.789497e+002
1.016360e+002, 3.820732e+002
1.021181e+002, 3.853752e+002
1.026002e+002, 3.893906e+002
1.030823e+002, 3.944432e+002
1.035645e+002, 3.981996e+002
1.040466e+002, 4.003844e+002
1.045287e+002, 4.015591e+002
1.050108e+002, 4.025981e+002
1.054929e+002, 4.025624e+002
1.059750e+002, 4.037751e+002
1.064572e+002, 4.075244e+002
1.069393e+002, 4.173985e+002
1.074214e+002, 4.232310e+002
1.079035e+002, 4.231791e+002
1.083856e+002, 4.189228e+002
1.088677e+002, 4.163065e+002
1.093499e+002, 4.161873e+002
1.098320e+002, 4.170541e+002
1.103141e+002, 4.182608e+002
1.107962e+002, 4.194957e+002
1.112783e+002, 4.214373e+002
1.117604e+002, 4.241637e+002
1.122426e+002, 4.276757e+002
1.127247e+002, 4.318150e+002
1.132068e+002, 4.367049e+002
1.136889e+002, 4.421447e+002
1.141710e+002, 4.479488e+002
1.146531e+002, 4.554584e+002
1.151353e+002, 4.620003e+002
1.156174e+002, 4.664501e+002
1.160995e+002, 4.687761e+002
1.165816e+002, 4.712282e+002
1.170637e+002, 4.753707e+002
1.175458e+002, 4.798167e+002
1.180280e+002, 4.831089e+002
1.185101e+002, 4.834594e+002
1.189922e+002, 4.833039e+002
1.194743e+002, 4.839085e+002
1.199564e+002, 4.853564e+002
1.204385e+002, 4.875338e+002
1.209207e+002, 4.901280e+002
1.214028e+002, 4.934164e+002
1.218849e+002, 4.978678e+002
1.223670e+002, 5.058805e+002
1.228491e+002, 5.142670e+002
1.233312e+002, 5.195597e+002
1.238134e+002, 5.210912e+002
1.242955e+002, 5.206353e+002
1.247776e+002, 5.187825e+002
1.252597e+002, 5.160031e+002
1.257418e+002, 5.138699e+002
1.262239e+002, 5.134547e+002
1.267061e+002, 5.143505e+002
1.271882e+002, 5.156801e+002
1.276703e+002, 5.171561e+002
1.281524e+002, 5.193728e+002
1.286345e+002, 5.240159e+002
1.291166e+002, 5.308145e+002
1.295988e+002, 5.369695e+002
1.300809e+002, 5.397565e+002
1.305630e+002, 5.399189e+002
1.310451e+002, 5.407377e+002
1.315272e+002, 5.431299e+002
1.320093e+002, 5.463043e+002
1.324915e+002, 5.482923e+002
1.329736e+002, 5.489659e+002
1.334557e+002, 5.495163e+002
1.339378e+002, 5.511432e+002
1.344199e+002, 5.538204e+002
1.349020e+002, 5.562197e+002
1.353842e+002, 5.578575e+002
1.358663e+002, 5.589086e+002
1.363484e+002, 5.604276e+002
1.368305e+002, 5.623601e+002
1.373126e+002, 5.648947e+002
1.377947e+002, 5.685469e+002
1.382769e+002, 5.736736e+002
1.387590e+002, 5.781592e+002
1.392411e+002, 5.815984e+002
1.397232e+002, 5.840176e+002
1.402053e+002, 5.844406e+002
1.406874e+002, 5.822692e+002
1.411696e+002, 5.789124e+002
1.416517e+002, 5.761760e+002
1.421338e+002, 5.740619e+002
1.426159e+002, 5.726107e+002
1.430980e+002, 5.719883e+002
1.435801e+002, 5.724476e+002
1.440623e+002, 5.726501e+002
1.445444e+002, 5.725416e+002
1.450265e+002, 5.722510e+002
1.455086e+002, 5.719631e+002
1.459907e+002, 5.715457e+002
1.464728e+002, 5.713566e+002
1.469550e+002, 5.717327e+002
1.474371e+002, 5.736875e+002
1.479192e+002, 5.738562e+002
1.484013e+002, 5.710850e+002
1.488834e+002, 5.666644e+002
1.493655e+002, 5.633613e+002
1.498477e+002, 5.613295e+002
1.503298e+002, 5.603079e+002
1.508119e+002, 5.603382e+002
1.512940e+002, 5.631482e+002
1.517761e+002, 5.644540e+002
1.522583e+002, 5.628147e+002
1.527404e+002, 5.593990e+002
1.532225e+002, 5.575096e+002
1.537046e+002, 5.590142e+002
1.541867e+002, 5.609649e+002
1.546688e+002, 5.620262e+002
1.551510e+002, 5.618876e+002
1.556331e+002, 5.610750e+002
1.561152e+002, 5.592637e+002
1.565973e+002, 5.567178e+002
1.570794e+002, 5.545087e+002
1.575615e+002, 5.527292e+002
1.580437e+002, 5.514225e+002
1.585258e+002, 5.506152e+002
1.590079e+002, 5.510058e+002
1.594900e+002, 5.511785e+002
1.599721e+002, 5.503228e+002
1.604542e+002, 5.487013e+002
1.609364e+002, 5.478361e+002
1.614185e+002, 5.488137e+002
1.619006e+002, 5.505143e+002
1.623827e+002, 5.520371e+002
1.628648e+002, 5.539445e+002
1.633469e+002, 5.548903e+002
1.638291e+002, 5.536608e+002
1.643112e+002, 5.504920e+002
1.647933e+002, 5.477047e+002
1.652754e+002, 5.469809e+002
1.657575e+002, 5.470352e+002
1.662396e+002, 5.465168e+002
1.667218e+002, 5.434055e+002
1.672039e+002, 5.407229e+002
1.676860e+002, 5.409816e+002
1.681681e+002, 5.441135e+002
1.686502e+002, 5.471058e+002
1.691323e+002, 5.478238e+002
1.696145e+002, 5.472656e+002
1.700966e+002, 5.467815e+002
1.705787e+002, 5.472302e+002
1.710608e+002, 5.477952e+002
1.715429e+002, 5.477750e+002
1.720250e+002, 5.471403e+002
1.725072e+002, 5.461839e+002
1.729893e+002, 5.446029e+002
1.734714e+002, 5.428728e+002
1.739535e+002, 5.418713e+002
1.744356e+002, 5.425233e+002
1.749177e+002, 5.438735e+002
1.753999e+002, 5.449257e+002
1.758820e+002, 5.456622e+002
1.763641e+002, 5.459495e+002
1.768462e+002, 5.452554e+002
1.773283e+002, 5.439635e+002
1.778104e+002, 5.430675e+002
1.782926e+002, 5.430415e+002
1.787747e+002, 5.437039e+002
1.792568e+002, 5.450493e+002
1.797389e+002, 5.471915e+002
1.802210e+002, 5.491627e+002
1.807031e+002, 5.496675e+002
1.811853e+002, 5.489887e+002
1.816674e+002, 5.481240e+002
1.821495e+002, 5.471340e+002
1.826316e+002, 5.463474e+002
1.831137e+002, 5.468147e+002
1.835958e+002, 5.488192e+002
1.840780e+002, 5.511825e+002
1.845601e+002, 5.523240e+002
1.850422e+002, 5.523881e+002
1.855243e+002, 5.524283e+002
1.860064e+002, 5.532120e+002
1.864885e+002, 5.544691e+002
1.869707e+002, 5.551285e+002
1.874528e+002, 5.550502e+002
1.879349e+002, 5.546250e+002
1.884170e+002, 5.544122e+002
1.888991e+002, 5.544016e+002
1.893812e+002, 5.544089e+002
1.898634e+002, 5.543131e+002
1.903455e+002, 5.541332e+002
1.908276e+002, 5.539967e+002
1.913097e+002, 5.538977e+002
1.917918e+002, 5.538478e+002
1.922739e+002, 5.539842e+002
1.927561e+002, 5.543180e+002
1.932382e+002, 5.543915e+002
1.937203e+002, 5.536970e+002
1.942024e+002, 5.523217e+002
1.946845e+002, 5.515016e+002
1.951666e+002, 5.513882e+002
1.956488e+002, 5.517712e+002
1.961309e+002, 5.523585e+002
1.966130e+002, 5.531974e+002
1.970951e+002, 5.539276e+002
1.975772e+002, 5.544670e+002
1.980593e+002, 5.548232e+002
1.985415e+002, 5.545236e+002
1.990236e+002, 5.533583e+002
1.995057e+002, 5.517438e+002
1.999878e+002, 5.506463e+002
2.004699e+002, 5.501328e+002
2.009520e+002, 5.498055e+002
2.014342e+002, 5.496073e+002
2.019163e+002, 5.495960e+002
2.023984e+002, 5.489072e+002
2.028805e+002, 5.472165e+002
2.033626e+002, 5.450507e+002
2.038447e+002, 5.438936e+002
2.043269e+002, 5.440466e+002
2.048090e+002, 5.441141e+002
2.052911e+002, 5.429763e+002
2.057732e+002, 5.402649e+002
2.062553e+002, 5.389608e+002
2.067374e+002, 5.397934e+002
2.072196e+002, 5.417877e+002
2.077017e+002, 5.420867e+002
2.081838e+002, 5.401391e+002
2.086659e+002, 5.380186e+002
2.091480e+002, 5.370245e+002
2.096301e+002, 5.374896e+002
2.101123e+002, 5.375109e+002
2.105944e+002, 5.368953e+002
2.110765e+002, 5.358201e+002
2.115586e+002, 5.347050e+002
2.120407e+002, 5.334039e+002
2.125228e+002, 5.323926e+002
2.130050e+002, 5.320316e+002
2.134871e+002, 5.325331e+002
2.139692e+002, 5.329179e+002
2.144513e+002, 5.332167e+002
2.149334e+002, 5.333289e+002
2.154155e+002, 5.328401e+002
2.158977e+002, 5.313632e+002
2.163798e+002, 5.300256e+002
2.168619e+002, 5.296411e+002
2.173440e+002, 5.308329e+002
2.178261e+002, 5.308743e+002
2.183082e+002, 5.289872e+002
2.187904e+002, 5.260602e+002
2.192725e+002, 5.250444e+002
2.197546e+002, 5.269898e+002
2.202367e+002, 5.289812e+002
2.207188e+002, 5.294631e+002
2.212009e+002, 5.278967e+002
2.216831e+002, 5.262635e+002
2.221652e+002, 5.245361e+002
2.226473e+002, 5.228105e+002
2.231294e+002, 5.213840e+002
2.236115e+002, 5.201811e+002
2.240936e+002, 5.194030e+002
2.245758e+002, 5.190978e+002
2.250579e+002, 5.191415e+002
2.255400e+002, 5.201489e+002
2.260221e+002, 5.229151e+002
2.265042e+002, 5.264465e+002
2.269863e+002, 5.277386e+002
2.274685e+002, 5.255304e+002
2.279506e+002, 5.230626e+002
2.284327e+002, 5.218641e+002
2.289148e+002, 5.226592e+002
2.293969e+002, 5.229814e+002
2.298790e+002, 5.225652e+002
2.303612e+002, 5.217312e+002
2.308433e+002, 5.212505e+002
2.313254e+002, 5.209820e+002
2.318075e+002, 5.212630e+002
2.322896e+002, 5.224492e+002
2.327717e+002, 5.254464e+002
2.332539e+002, 5.270175e+002
2.337360e+002, 5.264625e+002
2.342181e+002, 5.246959e+002
2.347002e+002, 5.237706e+002
2.351823e+002, 5.238310e+002
2.356644e+002, 5.245282e+002
2.361466e+002, 5.259772e+002
2.366287e+002, 5.290139e+002
2.371108e+002, 5.304166e+002
2.375929e+002, 5.293959e+002
2.380750e+002, 5.270515e+002
2.385571e+002, 5.256329e+002
2.390393e+002, 5.254398e+002
2.395214e+002, 5.257162e+002
2.400035e+002, 5.263698e+002
2.404856e+002, 5.278735e+002
2.409677e+002, 5.282879e+002
2.414498e+002, 5.270432e+002
2.419320e+002, 5.250247e+002
2.424141e+002, 5.237499e+002
2.428962e+002, 5.233446e+002
2.433783e+002, 5.235051e+002
2.438604e+002, 5.242343e+002
2.443425e+002, 5.257380e+002
2.448247e+002, 5.271215e+002
2.453068e+002, 5.285909e+002
2.457889e+002, 5.298176e+002
2.462710e+002, 5.301717e+002
2.467531e+002, 5.289211e+002
2.472352e+002, 5.280591e+002
2.477174e+002, 5.283708e+002
2.481995e+002, 5.302238e+002
2.486816e+002, 5.312989e+002
2.491637e+002, 5.311679e+002
2.496458e+002, 5.305712e+002
2.501279e+002, 5.306004e+002
2.506101e+002, 5.316505e+002
2.510922e+002, 5.325716e+002
2.515743e+002, 5.330112e+002
2.520564e+002, 5.329028e+002
2.525385e+002, 5.328105e+002
2.530206e+002, 5.326545e+002
2.535028e+002, 5.325886e+002
2.539849e+002, 5.328704e+002
2.544670e+002, 5.338107e+002
2.549491e+002, 5.344340e+002
2.554312e+002, 5.343506e+002
2.559133e+002, 5.334938e+002
2.563955e+002, 5.332405e+002
2.568776e+002, 5.338791e+002
2.573597e+002, 5.348005e+002
2.578418e+002, 5.352762e+002
2.583239e+002, 5.349164e+002
2.588061e+002, 5.350728e+002
2.592882e+002, 5.362805e+002
2.597703e+002, 5.385143e+002
2.602524e+002, 5.397759e+002
2.607345e+002, 5.397420e+002
2.612166e+002, 5.392086e+002
2.616988e+002, 5.389048e+002
2.621809e+002, 5.389982e+002
2.626630e+002, 5.388311e+002
2.631451e+002, 5.381200e+002
2.636272e+002, 5.369791e+002
2.641093e+002, 5.365112e+002
2.645915e+002, 5.368445e+002
2.650736e+002, 5.376262e+002
2.655557e+002, 5.387902e+002
2.660378e+002, 5.406429e+002
2.665199e+002, 5.416877e+002
2.670020e+002, 5.414744e+002
2.674842e+002, 5.402878e+002
2.679663e+002, 5.395090e+002
2.684484e+002, 5.390948e+002
2.689305e+002, 5.391755e+002
2.694126e+002, 5.400422e+002
2.698947e+002, 5.420096e+002
2.703769e+002, 5.433544e+002
2.708590e+002, 5.437141e+002
2.713411e+002, 5.434441e+002
2.718232e+002, 5.436617e+002
2.723053e+002, 5.444303e+002
2.727874e+002, 5.454798e+002
2.732696e+002, 5.468020e+002
2.737517e+002, 5.485002e+002
2.742338e+002, 5.497370e+002
2.747159e+002, 5.504088e+002
2.751980e+002, 5.506607e+002
2.756801e+002, 5.507571e+002
2.761623e+002, 5.506680e+002
2.766444e+002, 5.505784e+002
2.771265e+002, 5.506146e+002
2.776086e+002, 5.507977e+002
2.780907e+002, 5.508344e+002
2.785728e+002, 5.506390e+002
2.790550e+002, 5.504309e+002
2.795371e+002, 5.508122e+002
2.800192e+002, 5.519160e+002
2.805013e+002, 5.525126e+002
2.809834e+002, 5.515018e+002
2.814655e+002, 5.489606e+002
2.819477e+002, 5.484744e+002
2.824298e+002, 5.506384e+002
2.829119e+002, 5.532863e+002
2.833940e+002, 5.528505e+002
2.838761e+002, 5.492330e+002
2.843582e+002, 5.464046e+002
2.848404e+002, 5.463762e+002
2.853225e+002, 5.485624e+002
2.858046e+002, 5.493444e+002
2.862867e+002, 5.485424e+002
2.867688e+002, 5.471389e+002
2.872509e+002, 5.461639e+002
2.877331e+002, 5.455919e+002
2.882152e+002, 5.450652e+002
2.886973e+002, 5.445888e+002
2.891794e+002, 5.440533e+002
2.896615e+002, 5.428456e+002
2.901436e+002, 5.408792e+002
2.906258e+002, 5.392496e+002
2.911079e+002, 5.394268e+002
2.915900e+002, 5.410280e+002
2.920721e+002, 5.419361e+002
2.925542e+002, 5.415258e+002
2.930363e+002, 5.402127e+002
2.935185e+002, 5.385969e+002
2.940006e+002, 5.366768e+002
2.944827e+002, 5.349743e+002
2.949648e+002, 5.338975e+002
2.954469e+002, 5.333260e+002
2.959290e+002, 5.329362e+002
2.964112e+002, 5.327195e+002
2.968933e+002, 5.325458e+002
2.973754e+002, 5.322984e+002
2.978575e+002, 5.319528e+002
2.983396e+002, 5.313668e+002
2.988217e+002, 5.301473e+002
2.993039e+002, 5.286556e+002
2.997860e+002, 5.276165e+002
3.002681e+002, 5.271122e+002
3.007502e+002, 5.270690e+002
3.012323e+002, 5.277238e+002
3.017144e+002, 5.288621e+002
3.021966e+002, 5.297132e+002
3.026787e+002, 5.299174e+002
3.031608e+002, 5.295871e+002
3.036429e+002, 5.286705e+002
3.041250e+002, 5.270735e+002
3.046071e+002, 5.256243e+002
3.050893e+002, 5.252890e+002
3.055714e+002, 5.256673e+002
3.060535e+002, 5.259322e+002
3.065356e+002, 5.254241e+002
3.070177e+002, 5.248019e+002
3.074998e+002, 5.249445e+002
3.079820e+002, 5.258779e+002
3.084641e+002, 5.264515e+002
3.089462e+002, 5.256400e+002
3.094283e+002, 5.240243e+002
3.099104e+002, 5.223983e+002
3.103925e+002, 5.209531e+002
3.108747e+002, 5.197060e+002
3.113568e+002, 5.185339e+002
3.118389e+002, 5.175023e+002
3.123210e+002, 5.170794e+002
3.128031e+002, 5.178787e+002
3.132852e+002, 5.192487e+002
3.137674e+002, 5.206176e+002
3.142495e+002, 5.221987e+002
3.147316e+002, 5.232475e+002
3.152137e+002, 5.230903e+002
3.156958e+002, 5.220128e+002
3.161779e+002, 5.209787e+002
3.166601e+002, 5.201624e+002
3.171422e+002, 5.196605e+002
3.176243e+002, 5.195966e+002
3.181064e+002, 5.201962e+002
3.185885e+002, 5.207838e+002
3.190706e+002, 5.212321e+002
3.195528e+002, 5.215024e+002
3.200349e+002, 5.215236e+002
3.205170e+002, 5.209806e+002
3.209991e+002, 5.204222e+002
3.214812e+002, 5.201702e+002
3.219633e+002, 5.204233e+002
3.224455e+002, 5.203343e+002
3.229276e+002, 5.191677e+002
3.234097e+002, 5.177502e+002
3.238918e+002, 5.170980e+002
3.243739e+002, 5.181554e+002
3.248560e+002, 5.192255e+002
3.253382e+002, 5.199215e+002
3.258203e+002, 5.202155e+002
3.263024e+002, 5.203195e+002
3.267845e+002, 5.201605e+002
3.272666e+002, 5.198767e+002
3.277487e+002, 5.195753e+002
3.282309e+002, 5.192957e+002
3.287130e+002, 5.189681e+002
3.291951e+002, 5.187487e+002
3.296772e+002, 5.185743e+002
3.301593e+002, 5.177413e+002
3.306414e+002, 5.151505e+002
3.311236e+002, 5.129499e+002
3.316057e+002, 5.124363e+002
3.320878e+002, 5.153173e+002
3.325699e+002, 5.167188e+002
3.330520e+002, 5.155751e+002
3.335341e+002, 5.130061e+002
3.340163e+002, 5.122447e+002
3.344984e+002, 5.142263e+002
3.349805e+002, 5.164579e+002
3.354626e+002, 5.180257e+002
3.359447e+002, 5.189420e+002
3.364268e+002, 5.190529e+002
3.369090e+002, 5.180136e+002
3.373911e+002, 5.165314e+002
3.378732e+002, 5.159586e+002
3.383553e+002, 5.167831e+002
3.388374e+002, 5.167993e+002
3.393195e+002, 5.149156e+002
3.398017e+002, 5.112558e+002
3.402838e+002, 5.088763e+002
3.407659e+002, 5.079091e+002
3.412480e+002, 5.078929e+002
3.417301e+002, 5.087159e+002
3.422122e+002, 5.104762e+002
3.426944e+002, 5.114784e+002
3.431765e+002, 5.110615e+002
3.436586e+002, 5.097472e+002
3.441407e+002, 5.093184e+002
3.446228e+002, 5.098179e+002
3.451049e+002, 5.106554e+002
3.455871e+002, 5.114918e+002
3.460692e+002, 5.123177e+002
3.465513e+002, 5.130484e+002
3.470334e+002, 5.137410e+002
3.475155e+002, 5.141992e+002
3.479977e+002, 5.139269e+002
3.484798e+002, 5.129999e+002
3.489619e+002, 5.120698e+002
3.494440e+002, 5.115157e+002
3.499261e+002, 5.112291e+002
3.504082e+002, 5.110083e+002
3.508904e+002, 5.108598e+002
3.513725e+002, 5.106596e+002
3.518546e+002, 5.101095e+002
3.523367e+002, 5.093854e+002
3.528188e+002, 5.089408e+002
3.533009e+002, 5.092971e+002
3.537831e+002, 5.098662e+002
3.542652e+002, 5.097340e+002
3.547473e+002, 5.089466e+002
3.552294e+002, 5.085101e+002
3.557115e+002, 5.098755e+002
3.561936e+002, 5.118142e+002
3.566758e+002, 5.126491e+002
3.571579e+002, 5.112043e+002
3.576400e+002, 5.094095e+002
3.581221e+002, 5.084820e+002
3.586042e+002, 5.083288e+002
3.590863e+002, 5.085748e+002
3.595685e+002, 5.093584e+002
3.600506e+002, 5.102758e+002
3.605327e+002, 5.110365e+002
3.610148e+002, 5.115753e+002
3.614969e+002, 5.120051e+002
3.619790e+002, 5.122476e+002
3.624612e+002, 5.124288e+002
3.629433e+002, 5.127637e+002
3.634254e+002, 5.133224e+002
3.639075e+002, 5.140368e+002
3.643896e+002, 5.150939e+002
3.648717e+002, 5.166307e+002
3.653539e+002, 5.174418e+002
3.658360e+002, 5.165125e+002
3.663181e+002, 5.151110e+002
3.668002e+002, 5.143799e+002
3.672823e+002, 5.155143e+002
3.677644e+002, 5.161395e+002
3.682466e+002, 5.155157e+002
3.687287e+002, 5.137941e+002
3.692108e+002, 5.128303e+002
3.696929e+002, 5.131757e+002
3.701750e+002, 5.137911e+002
3.706571e+002, 5.141467e+002
3.711393e+002, 5.140126e+002
3.716214e+002, 5.140439e+002
3.721035e+002, 5.143522e+002
3.725856e+002, 5.148007e+002
3.730677e+002, 5.150539e+002
3.735498e+002, 5.150018e+002
3.740320e+002, 5.149828e+002
3.745141e+002, 5.152042e+002
3.749962e+002, 5.157452e+002
3.754783e+002, 5.157789e+002
3.759604e+002, 5.151321e+002
3.764425e+002, 5.142642e+002
3.769247e+002, 5.137189e+002
3.774068e+002, 5.135384e+002
3.778889e+002, 5.134471e+002
3.783710e+002, 5.134032e+002
3.788531e+002, 5.133907e+002
3.793352e+002, 5.133329e+002
3.798174e+002, 5.132213e+002
3.802995e+002, 5.131212e+002
3.807816e+002, 5.131825e+002
3.812637e+002, 5.133583e+002
3.817458e+002, 5.132170e+002
3.822279e+002, 5.126362e+002
3.827101e+002, 5.118443e+002
3.831922e+002, 5.112422e+002
3.836743e+002, 5.107843e+002
3.841564e+002, 5.101887e+002
3.846385e+002, 5.087920e+002
3.851206e+002, 5.072486e+002
3.856028e+002, 5.071556e+002
3.860849e+002, 5.086941e+002
3.865670e+002, 5.103442e+002
3.870491e+002, 5.104355e+002
3.875312e+002, 5.096329e+002
3.880133e+002, 5.092841e+002
3.884955e+002, 5.105146e+002
3.889776e+002, 5.118741e+002
3.894597e+002, 5.117537e+002
3.899418e+002, 5.103906e+002
3.904239e+002, 5.092248e+002
3.909060e+002, 5.094364e+002
3.913882e+002, 5.100729e+002
3.918703e+002, 5.102534e+002
3.923524e+002, 5.096607e+002
3.928345e+002, 5.088828e+002
3.933166e+002, 5.077303e+002
3.937987e+002, 5.066114e+002
3.942809e+002, 5.063566e+002
3.947630e+002, 5.082343e+002
3.952451e+002, 5.101632e+002
3.957272e+002, 5.112510e+002
3.962093e+002, 5.113205e+002
3.966914e+002, 5.111422e+002
3.971736e+002, 5.104527e+002
3.976557e+002, 5.097720e+002
3.981378e+002, 5.095771e+002
3.986199e+002, 5.109022e+002
3.991020e+002, 5.115851e+002
3.995841e+002, 5.108325e+002
4.000663e+002, 5.089677e+002
4.005484e+002, 5.082245e+002
4.010305e+002, 5.095688e+002
4.015126e+002, 5.109945e+002
4.019947e+002, 5.115018e+002
4.024768e+002, 5.106418e+002
4.029590e+002, 5.099552e+002
4.034411e+002, 5.095821e+002
4.039232e+002, 5.092941e+002
4.044053e+002, 5.085591e+002
4.048874e+002, 5.070801e+002
4.053695e+002, 5.061089e+002
4.058517e+002, 5.062828e+002
4.063338e+002, 5.074886e+002
4.068159e+002, 5.078603e+002
4.072980e+002, 5.072236e+002
4.077801e+002, 5.063711e+002
4.082622e+002, 5.060124e+002
4.087444e+002, 5.061309e+002
4.092265e+002, 5.065405e+002
4.097086e+002, 5.073789e+002
4.101907e+002, 5.082507e+002
4.106728e+002, 5.081537e+002
4.111549e+002, 5.071721e+002
4.116371e+002, 5.063098e+002
4.121192e+002, 5.063158e+002
4.126013e+002, 5.068608e+002
4.130834e+002, 5.072162e+002
4.135655e+002, 5.072969e+002
4.140476e+002, 5.073820e+002
4.145298e+002, 5.077801e+002
4.150119e+002, 5.083776e+002
4.154940e+002, 5.089592e+002
4.159761e+002, 5.094893e+002
4.164582e+002, 5.099251e+002
4.169403e+002, 5.103611e+002
4.174225e+002, 5.107408e+002
4.179046e+002, 5.106725e+002
4.183867e+002, 5.090257e+002
4.188688e+002, 5.073476e+002
4.193509e+002, 5.071353e+002
4.198330e+002, 5.095310e+002
4.203152e+002, 5.115672e+002
4.207973e+002, 5.116481e+002
4.212794e+002, 5.106778e+002
4.217615e+002, 5.103008e+002
4.222436e+002, 5.118179e+002
4.227257e+002, 5.131783e+002
4.232079e+002, 5.134878e+002
4.236900e+002, 5.125094e+002
4.241721e+002, 5.121077e+002
4.246542e+002, 5.129484e+002
4.251363e+002, 5.140942e+002
4.256184e+002, 5.148702e+002
4.261006e+002, 5.149903e+002
4.265827e+002, 5.151393e+002
4.270648e+002, 5.153207e+002
4.275469e+002, 5.155593e+002
4.280290e+002, 5.159926e+002
4.285111e+002, 5.167819e+002
4.289933e+002, 5.174211e+002
4.294754e+002, 5.175605e+002
4.299575e+002, 5.170612e+002
4.304396e+002, 5.171085e+002
4.309217e+002, 5.178456e+002
4.314038e+002, 5.188046e+002
4.318860e+002, 5.194379e+002
4.323681e+002, 5.197435e+002
4.328502e+002, 5.197587e+002
4.333323e+002, 5.192973e+002
4.338144e+002, 5.186976e+002
4.342965e+002, 5.190460e+002
4.347787e+002, 5.203344e+002
4.352608e+002, 5.216270e+002
4.357429e+002, 5.221448e+002
4.362250e+002, 5.221801e+002
4.367071e+002, 5.225342e+002
4.371892e+002, 5.234019e+002
4.376714e+002, 5.241890e+002
4.381535e+002, 5.238481e+002
4.386356e+002, 5.229342e+002
4.391177e+002, 5.226721e+002
4.395998e+002, 5.241271e+002
4.400819e+002, 5.260917e+002
4.405641e+002, 5.276821e+002
4.410462e+002, 5.288847e+002
4.415283e+002, 5.297778e+002
4.420104e+002, 5.301481e+002
4.424925e+002, 5.303455e+002
4.429746e+002, 5.306548e+002
4.434568e+002, 5.311760e+002
4.439389e+002, 5.317266e+002
4.444210e+002, 5.322373e+002
4.449031e+002, 5.327368e+002
4.453852e+002, 5.332851e+002
4.458673e+002, 5.335994e+002
4.463495e+002, 5.342446e+002
4.468316e+002, 5.357765e+002
4.473137e+002, 5.385169e+002
4.477958e+002, 5.397757e+002
4.482779e+002, 5.380264e+002
4.487600e+002, 5.360743e+002
4.492422e+002, 5.361639e+002
4.497243e+002, 5.398481e+002
4.502064e+002, 5.422326e+002
4.506885e+002, 5.423589e+002
4.511706e+002, 5.412481e+002
4.516527e+002, 5.418532e+002
4.521349e+002, 5.446385e+002
4.526170e+002, 5.474850e+002
4.530991e+002, 5.493572e+002
4.535812e+002, 5.503189e+002
4.540633e+002, 5.516227e+002
4.545454e+002, 5.533284e+002
4.550276e+002, 5.551210e+002
4.555097e+002, 5.566765e+002
4.559918e+002, 5.580201e+002
4.564739e+002, 5.592358e+002
4.569560e+002, 5.603803e+002
4.574381e+002, 5.613719e+002
4.579203e+002, 5.620604e+002
4.584024e+002, 5.624749e+002
4.588845e+002, 5.627623e+002
4.593666e+002, 5.624534e+002
4.598488e+002, 5.623239e+002
4.603309e+002, 5.637006e+002
4.608130e+002, 5.668281e+002
4.612951e+002, 5.696390e+002
4.617772e+002, 5.703304e+002
4.622593e+002, 5.699822e+002
4.627415e+002, 5.698436e+002
4.632236e+002, 5.705881e+002
4.637057e+002, 5.713552e+002
4.641878e+002, 5.716320e+002
4.646699e+002, 5.716162e+002
4.651520e+002, 5.720145e+002
4.656342e+002, 5.734130e+002
4.661163e+002, 5.749246e+002
4.665984e+002, 5.762455e+002
4.670805e+002, 5.774490e+002
4.675626e+002, 5.781228e+002
4.680447e+002, 5.773625e+002
4.685269e+002, 5.766249e+002
4.690090e+002, 5.775335e+002
4.694911e+002, 5.813854e+002
4.699732e+002, 5.844119e+002
4.704553e+002, 5.859045e+002
4.709374e+002, 5.861690e+002
4.714196e+002, 5.864259e+002
4.719017e+002, 5.865403e+002
4.723838e+002, 5.870413e+002
4.728659e+002, 5.884804e+002
4.733480e+002, 5.908593e+002
4.738301e+002, 5.924226e+002
4.743123e+002, 5.930220e+002
4.747944e+002, 5.932879e+002
4.752765e+002, 5.939838e+002
4.757586e+002, 5.950255e+002
4.762407e+002, 5.959567e+002
4.767228e+002, 5.965040e+002
4.772050e+002, 5.970305e+002
4.776871e+002, 5.981688e+002
4.781692e+002, 5.998270e+002
4.786513e+002, 6.015266e+002
4.791334e+002, 6.031288e+002
4.796155e+002, 6.045473e+002
4.800977e+002, 6.056703e+002
4.805798e+002, 6.064763e+002
4.810619e+002, 6.071212e+002
4.815440e+002, 6.074752e+002
4.820261e+002, 6.078016e+002
4.825082e+002, 6.084084e+002
4.829904e+002, 6.097767e+002
4.834725e+002, 6.110340e+002
4.839546e+002, 6.120208e+002
4.844367e+002, 6.127087e+002
4.849188e+002, 6.129750e+002
4.854009e+002, 6.122343e+002
4.858831e+002, 6.115651e+002
4.863652e+002, 6.114586e+002
4.868473e+002, 6.121856e+002
4.873294e+002, 6.124875e+002
4.878115e+002, 6.125134e+002
4.882936e+002, 6.119516e+002
4.887758e+002, 6.102617e+002
4.892579e+002, 6.068808e+002
4.897400e+002, 6.040748e+002
4.902221e+002, 6.020924e+002
4.907042e+002, 6.009802e+002
4.911863e+002, 6.015084e+002
4.916685e+002, 6.039264e+002
4.921506e+002, 6.054883e+002
4.926327e+002, 6.039688e+002
4.931148e+002, 6.001373e+002
4.935969e+002, 5.976827e+002
4.940790e+002, 5.967020e+002
4.945612e+002, 5.964587e+002
4.950433e+002, 5.963646e+002
4.955254e+002, 5.964521e+002
4.960075e+002, 5.968707e+002
4.964896e+002, 5.980382e+002
4.969717e+002, 5.989597e+002
4.974539e+002, 5.982769e+002
4.979360e+002, 5.965463e+002
4.984181e+002, 5.952305e+002
4.989002e+002, 5.953493e+002
4.993823e+002, 5.958292e+002
4.998644e+002, 5.957645e+002
5.003466e+002, 5.949893e+002
5.008287e+002, 5.951202e+002
5.013108e+002, 5.976370e+002
5.017929e+002, 6.006578e+002
5.022750e+002, 6.027418e+002
5.027571e+002, 6.026630e+002
5.032393e+002, 6.029992e+002
5.037214e+002, 6.043543e+002
5.042035e+002, 6.060656e+002
5.046856e+002, 6.065852e+002
5.051677e+002, 6.047924e+002
5.056498e+002, 6.038891e+002
5.061320e+002, 6.050510e+002
5.066141e+002, 6.082038e+002
5.070962e+002, 6.109205e+002
5.075783e+002, 6.130606e+002
5.080604e+002, 6.152662e+002
5.085425e+002, 6.181155e+002
5.090247e+002, 6.215717e+002
5.095068e+002, 6.251902e+002
5.099889e+002, 6.290516e+002
5.104710e+002, 6.326916e+002
5.109531e+002, 6.350320e+002
5.114352e+002, 6.364850e+002
5.119174e+002, 6.385603e+002
5.123995e+002, 6.424161e+002
5.128816e+002, 6.468811e+002
5.133637e+002, 6.505944e+002
5.138458e+002, 6.536795e+002
5.143279e+002, 6.569059e+002
5.148101e+002, 6.608352e+002
5.152922e+002, 6.650079e+002
5.157743e+002, 6.689554e+002
5.162564e+002, 6.723994e+002
5.167385e+002, 6.763377e+002
5.172206e+002, 6.819814e+002
5.177028e+002, 6.879225e+002
5.181849e+002, 6.925325e+002
5.186670e+002, 6.948018e+002
5.191491e+002, 6.965933e+002
5.196312e+002, 6.982930e+002
5.201133e+002, 6.997676e+002
5.205955e+002, 7.005035e+002
5.210776e+002, 7.005735e+002
5.215597e+002, 6.997990e+002
5.220418e+002, 6.978277e+002
5.225239e+002, 6.944736e+002
5.230060e+002, 6.921218e+002
5.234882e+002, 6.910305e+002
5.239703e+002, 6.902148e+002
5.244524e+002, 6.890811e+002
5.249345e+002, 6.875449e+002
5.254166e+002, 6.842239e+002
5.258987e+002, 6.784565e+002
5.263809e+002, 6.715207e+002
5.268630e+002, 6.647039e+002
5.273451e+002, 6.581707e+002
5.278272e+002, 6.527670e+002
5.283093e+002, 6.496465e+002
5.287914e+002, 6.473533e+002
5.292736e+002, 6.443800e+002
5.297557e+002, 6.406832e+002
5.302378e+002, 6.366899e+002
5.307199e+002, 6.318717e+002
5.312020e+002, 6.272459e+002
5.316841e+002, 6.238135e+002
5.321663e+002, 6.222777e+002
5.326484e+002, 6.206706e+002
5.331305e+002, 6.183239e+002
5.336126e+002, 6.156410e+002
5.340947e+002, 6.131578e+002
5.345768e+002, 6.111833e+002
5.350590e+002, 6.091192e+002
5.355411e+002, 6.067892e+002
5.360232e+002, 6.042772e+002
5.365053e+002, 6.021943e+002
5.369874e+002, 6.006989e+002
5.374695e+002, 5.993615e+002
5.379517e+002, 5.979615e+002
5.384338e+002, 5.964747e+002
5.389159e+002, 5.953094e+002
5.393980e+002, 5.945226e+002
5.398801e+002, 5.938402e+002
5.403622e+002, 5.927964e+002
5.408444e+002, 5.915470e+002
5.413265e+002, 5.908845e+002
5.418086e+002, 5.911962e+002
5.422907e+002, 5.917054e+002
5.427728e+002, 5.913533e+002
5.432549e+002, 5.903566e+002
5.437371e+002, 5.893541e+002
5.442192e+002, 5.886776e+002
5.447013e+002, 5.881111e+002
5.451834e+002, 5.876613e+002
5.456655e+002, 5.872814e+002
5.461476e+002, 5.864265e+002
5.466298e+002, 5.839996e+002
5.471119e+002, 5.816215e+002
5.475940e+002, 5.805340e+002
5.480761e+002, 5.821335e+002
5.485582e+002, 5.824785e+002
5.490403e+002, 5.800403e+002
5.495225e+002, 5.768094e+002
5.500046e+002, 5.753094e+002
5.504867e+002, 5.767704e+002
5.509688e+002, 5.774005e+002
5.514509e+002, 5.761921e+002
5.519330e+002, 5.737855e+002
5.524152e+002, 5.727493e+002
5.528973e+002, 5.733393e+002
5.533794e+002, 5.736839e+002
5.538615e+002, 5.724182e+002
5.543436e+002, 5.699586e+002
5.548257e+002, 5.687233e+002
5.553079e+002, 5.687750e+002
5.557900e+002, 5.690816e+002
5.562721e+002, 5.686708e+002
5.567542e+002, 5.678697e+002
5.572363e+002, 5.672592e+002
5.577184e+002, 5.669548e+002
5.582006e+002, 5.668925e+002
5.586827e+002, 5.673822e+002
5.591648e+002, 5.680261e+002
5.596469e+002, 5.681569e+002
5.601290e+002, 5.670848e+002
5.606111e+002, 5.658944e+002
5.610933e+002, 5.647628e+002
5.615754e+002, 5.637813e+002
5.620575e+002, 5.635013e+002
5.625396e+002, 5.645175e+002
5.630217e+002, 5.657866e+002
5.635038e+002, 5.670038e+002
5.639860e+002, 5.682524e+002
5.644681e+002, 5.690073e+002
5.649502e+002, 5.690465e+002
5.654323e+002, 5.689308e+002
5.659144e+002, 5.692593e+002
5.663965e+002, 5.700865e+002
5.668787e+002, 5.706876e+002
5.673608e+002, 5.708884e+002
5.678429e+002, 5.709670e+002
5.683250e+002, 5.713783e+002
5.688071e+002, 5.720935e+002
5.692892e+002, 5.729566e+002
5.697714e+002, 5.741703e+002
5.702535e+002, 5.753119e+002
5.707356e+002, 5.755448e+002
5.712177e+002, 5.750402e+002
5.716998e+002, 5.747842e+002
5.721819e+002, 5.755681e+002
5.726641e+002, 5.766801e+002
5.731462e+002, 5.775342e+002
5.736283e+002, 5.779905e+002
5.741104e+002, 5.785809e+002
5.745925e+002, 5.799900e+002
5.750746e+002, 5.813240e+002
5.755568e+002, 5.817734e+002
5.760389e+002, 5.803632e+002
5.765210e+002, 5.793199e+002
5.770031e+002, 5.788545e+002
5.774852e+002, 5.787496e+002
5.779673e+002, 5.784586e+002
5.784495e+002, 5.777391e+002
5.789316e+002, 5.776829e+002
5.794137e+002, 5.789920e+002
5.798958e+002, 5.811650e+002
5.803779e+002, 5.817726e+002
5.808600e+002, 5.807433e+002
5.813422e+002, 5.799745e+002
5.818243e+002, 5.814519e+002
5.823064e+002, 5.840465e+002
5.827885e+002, 5.848353e+002
5.832706e+002, 5.834990e+002
5.837527e+002, 5.821174e+002
5.842349e+002, 5.826985e+002
5.847170e+002, 5.840963e+002
5.851991e+002, 5.848346e+002
5.856812e+002, 5.840771e+002
5.861633e+002, 5.833793e+002
5.866454e+002, 5.837688e+002
5.871276e+002, 5.845994e+002
5.876097e+002, 5.847002e+002
5.880918e+002, 5.827285e+002
5.885739e+002, 5.812708e+002
5.890560e+002, 5.811251e+002
5.895381e+002, 5.820643e+002
5.900203e+002, 5.824597e+002
5.905024e+002, 5.822872e+002
5.909845e+002, 5.816214e+002
5.914666e+002, 5.802667e+002
5.919487e+002, 5.782069e+002
5.924308e+002, 5.771082e+002
5.929130e+002, 5.771453e+002
5.933951e+002, 5.772810e+002
5.938772e+002, 5.761501e+002
5.943593e+002, 5.742499e+002
5.948414e+002, 5.733383e+002
5.953235e+002, 5.739392e+002
5.958057e+002, 5.748976e+002
5.962878e+002, 5.749728e+002
5.967699e+002, 5.745712e+002
5.972520e+002, 5.744514e+002
5.977341e+002, 5.754547e+002
5.982162e+002, 5.762809e+002
5.986984e+002, 5.760233e+002
5.991805e+002, 5.749879e+002
5.996626e+002, 5.743347e+002
6.001447e+002, 5.743994e+002
6.006268e+002, 5.748078e+002
6.011089e+002, 5.754313e+002
6.015911e+002, 5.762667e+002
6.020732e+002, 5.773193e+002
6.025553e+002, 5.786381e+002
6.030374e+002, 5.800847e+002
6.035195e+002, 5.816710e+002
6.040016e+002, 5.834445e+002
6.044838e+002, 5.846905e+002
6.049659e+002, 5.853235e+002
6.054480e+002, 5.855593e+002
6.059301e+002, 5.850576e+002
6.064122e+002, 5.842455e+002
6.068943e+002, 5.850698e+002
6.073765e+002, 5.889269e+002
6.078586e+002, 5.931145e+002
6.083407e+002, 5.942498e+002
6.088228e+002, 5.933128e+002
6.093049e+002, 5.926779e+002
6.097870e+002, 5.939989e+002
6.102692e+002, 5.954080e+002
6.107513e+002, 5.955074e+002
6.112334e+002, 5.944562e+002
6.117155e+002, 5.944277e+002
6.121976e+002, 5.969803e+002
6.126797e+002, 5.996564e+002
6.131619e+002, 6.011767e+002
6.136440e+002, 6.010674e+002
6.141261e+002, 6.021752e+002
6.146082e+002, 6.050849e+002
6.150903e+002, 6.083262e+002
6.155724e+002, 6.105545e+002
6.160546e+002, 6.117283e+002
6.165367e+002, 6.128973e+002
6.170188e+002, 6.141487e+002
6.175009e+002, 6.155112e+002
6.179830e+002, 6.167665e+002
6.184651e+002, 6.181179e+002
6.189473e+002, 6.203729e+002
6.194294e+002, 6.248016e+002
6.199115e+002, 6.290970e+002
6.203936e+002, 6.304882e+002
6.208757e+002, 6.298416e+002
6.213578e+002, 6.297744e+002
6.218400e+002, 6.317178e+002
6.223221e+002, 6.343078e+002
6.228042e+002, 6.371888e+002
6.232863e+002, 6.403522e+002
6.237684e+002, 6.426531e+002
6.242505e+002, 6.437409e+002
6.247327e+002, 6.441907e+002
6.252148e+002, 6.440787e+002
6.256969e+002, 6.430404e+002
6.261790e+002, 6.430907e+002
6.266611e+002, 6.446274e+002
6.271432e+002, 6.464226e+002
6.276254e+002, 6.473000e+002
6.281075e+002, 6.472744e+002
6.285896e+002, 6.463798e+002
6.290717e+002, 6.443601e+002
6.295538e+002, 6.422408e+002
6.300359e+002, 6.416349e+002
6.305181e+002, 6.420388e+002
6.310002e+002, 6.421682e+002
6.314823e+002, 6.411583e+002
6.319644e+002, 6.400291e+002
6.324465e+002, 6.394442e+002
6.329286e+002, 6.393178e+002
6.334108e+002, 6.393953e+002
6.338929e+002, 6.391061e+002
6.343750e+002, 6.394520e+002
6.348571e+002, 6.413265e+002
6.353392e+002, 6.448621e+002
6.358214e+002, 6.468975e+002
6.363035e+002, 6.463837e+002
6.367856e+002, 6.458962e+002
6.372677e+002, 6.471225e+002
6.377498e+002, 6.504132e+002
6.382319e+002, 6.526194e+002
6.387141e+002, 6.535562e+002
6.391962e+002, 6.542206e+002
6.396783e+002, 6.557928e+002
6.401604e+002, 6.580235e+002
6.406425e+002, 6.598318e+002
6.411246e+002, 6.609153e+002
6.416068e+002, 6.619557e+002
6.420889e+002, 6.640128e+002
6.425710e+002, 6.664612e+002
6.430531e+002, 6.681816e+002
6.435352e+002, 6.682708e+002
6.440173e+002, 6.680622e+002
6.444995e+002, 6.678241e+002
6.449816e+002, 6.676859e+002
6.454637e+002, 6.680208e+002
6.459458e+002, 6.697286e+002
6.464279e+002, 6.709686e+002
6.469100e+002, 6.713527e+002
6.473922e+002, 6.708880e+002
6.478743e+002, 6.694860e+002
6.483564e+002, 6.667452e+002
6.488385e+002, 6.642125e+002
6.493206e+002, 6.632573e+002
6.498027e+002, 6.635514e+002
6.502849e+002, 6.619941e+002
6.507670e+002, 6.584793e+002
6.512491e+002, 6.547342e+002
6.517312e+002, 6.523859e+002
6.522133e+002, 6.508652e+002
6.526954e+002, 6.491189e+002
6.531776e+002, 6.467969e+002
6.536597e+002, 6.449965e+002
6.541418e+002, 6.443322e+002
6.546239e+002, 6.445504e+002
6.551060e+002, 6.453465e+002
6.555881e+002, 6.466656e+002
6.560703e+002, 6.485388e+002
6.565524e+002, 6.511464e+002
6.570345e+002, 6.542714e+002
6.575166e+002, 6.575508e+002
6.579987e+002, 6.610932e+002
6.584808e+002, 6.645108e+002
6.589630e+002, 6.675842e+002
6.594451e+002, 6.705593e+002
6.599272e+002, 6.742040e+002
6.604093e+002, 6.785180e+002
6.608914e+002, 6.836989e+002
6.613735e+002, 6.902198e+002
6.618557e+002, 6.975345e+002
6.623378e+002, 7.046542e+002
6.628199e+002, 7.116545e+002
6.633020e+002, 7.192101e+002
6.637841e+002, 7.285386e+002
6.642662e+002, 7.380744e+002
6.647484e+002, 7.463409e+002
6.652305e+002, 7.528063e+002
6.657126e+002, 7.600045e+002
6.661947e+002, 7.685056e+002
6.666768e+002, 7.780165e+002
6.671589e+002, 7.884332e+002
6.676411e+002, 8.008563e+002
6.681232e+002, 8.116672e+002
6.686053e+002, 8.203828e+002
6.690874e+002, 8.281658e+002
6.695695e+002, 8.361349e+002
6.700516e+002, 8.443200e+002
6.705338e+002, 8.541555e+002
6.710159e+002, 8.666857e+002
6.714980e+002, 8.792185e+002
6.719801e+002, 8.870502e+002
6.724622e+002, 8.914953e+002
6.729443e+002, 8.959448e+002
6.734265e+002, 9.031109e+002
6.739086e+002, 9.096134e+002
6.743907e+002, 9.132180e+002
6.748728e+002, 9.143649e+002
6.753549e+002, 9.143479e+002
6.758370e+002, 9.141737e+002
6.763192e+002, 9.122747e+002
6.768013e+002, 9.077560e+002
6.772834e+002, 9.008182e+002
6.777655e+002, 8.935850e+002
6.782476e+002, 8.863221e+002
6.787297e+002, 8.783517e+002
6.792119e+002, 8.697077e+002
6.796940e+002, 8.602947e+002
6.801761e+002, 8.482708e+002
6.806582e+002, 8.334773e+002
6.811403e+002, 8.182463e+002
6.816224e+002, 8.046544e+002
6.821046e+002, 7.919396e+002
6.825867e+002, 7.787596e+002
6.830688e+002, 7.646778e+002
6.835509e+002, 7.514148e+002
6.840330e+002, 7.399998e+002
6.845151e+002, 7.299270e+002
6.849973e+002, 7.205541e+002
6.854794e+002, 7.119206e+002
6.859615e+002, 7.035560e+002
6.864436e+002, 6.951463e+002
6.869257e+002, 6.870149e+002
6.874078e+002, 6.794971e+002
6.878900e+002, 6.723776e+002
6.883721e+002, 6.663836e+002
6.888542e+002, 6.620405e+002
6.893363e+002, 6.584485e+002
6.898184e+002, 6.537239e+002
6.903005e+002, 6.480035e+002
6.907827e+002, 6.427094e+002
6.912648e+002, 6.385706e+002
6.917469e+002, 6.350056e+002
6.922290e+002, 6.313248e+002
6.927111e+002, 6.275353e+002
6.931932e+002, 6.238254e+002
6.936754e+002, 6.198502e+002
6.941575e+002, 6.163553e+002
6.946396e+002, 6.139626e+002
6.951217e+002, 6.126005e+002
6.956038e+002, 6.111383e+002
6.960859e+002, 6.094755e+002
6.965681e+002, 6.076227e+002
6.970502e+002, 6.054370e+002
6.975323e+002, 6.028799e+002
6.980144e+002, 6.011119e+002
6.984965e+002, 6.003380e+002
6.989786e+002, 5.996337e+002
6.994608e+002, 5.981774e+002
6.999429e+002, 5.961751e+002
7.004250e+002, 5.946093e+002
7.009071e+002, 5.935456e+002
7.013892e+002, 5.926542e+002
7.018713e+002, 5.918805e+002
7.023535e+002, 5.910120e+002
7.028356e+002, 5.896566e+002
7.033177e+002, 5.874505e+002
7.037998e+002, 5.856776e+002
7.042819e+002, 5.852639e+002
7.047640e+002, 5.853079e+002
7.052462e+002, 5.848026e+002
7.057283e+002, 5.829190e+002
7.062104e+002, 5.818455e+002
7.066925e+002, 5.819806e+002
7.071746e+002, 5.826641e+002
7.076567e+002, 5.828609e+002
7.081389e+002, 5.825409e+002
7.086210e+002, 5.822169e+002
7.091031e+002, 5.821165e+002
7.095852e+002, 5.818657e+002
7.100673e+002, 5.806642e+002
7.105494e+002, 5.787745e+002
7.110316e+002, 5.769491e+002
7.115137e+002, 5.751148e+002
7.119958e+002, 5.738701e+002
7.124779e+002, 5.740490e+002
7.129600e+002, 5.751860e+002
7.134421e+002, 5.758512e+002
7.139243e+002, 5.754570e+002
7.144064e+002, 5.747488e+002
7.148885e+002, 5.738957e+002
7.153706e+002, 5.729070e+002
7.158527e+002, 5.718160e+002
7.163348e+002, 5.704481e+002
7.168170e+002, 5.695170e+002
7.172991e+002, 5.696367e+002
7.177812e+002, 5.705143e+002
7.182633e+002, 5.704865e+002
7.187454e+002, 5.695760e+002
7.192275e+002, 5.687790e+002
7.197097e+002, 5.692074e+002
7.201918e+002, 5.699166e+002
7.206739e+002, 5.695958e+002
7.211560e+002, 5.681415e+002
7.216381e+002, 5.668730e+002
7.221202e+002, 5.662541e+002
7.226024e+002, 5.661677e+002
7.230845e+002, 5.666693e+002
7.235666e+002, 5.681228e+002
7.240487e+002, 5.690078e+002
7.245308e+002, 5.692006e+002
7.250129e+002, 5.690049e+002
7.254951e+002, 5.686971e+002
7.259772e+002, 5.682888e+002
7.264593e+002, 5.673077e+002
7.269414e+002, 5.655555e+002
7.274235e+002, 5.639752e+002
7.279056e+002, 5.638223e+002
7.283878e+002, 5.646286e+002
7.288699e+002, 5.654653e+002
7.293520e+002, 5.662513e+002
7.298341e+002, 5.666526e+002
7.303162e+002, 5.659388e+002
7.307983e+002, 5.648997e+002
7.312805e+002, 5.645211e+002
7.317626e+002, 5.660729e+002
7.322447e+002, 5.669216e+002
7.327268e+002, 5.663775e+002
7.332089e+002, 5.652616e+002
7.336910e+002, 5.649891e+002
7.341732e+002, 5.657941e+002
7.346553e+002, 5.663839e+002
7.351374e+002, 5.664041e+002
7.356195e+002, 5.661988e+002
7.361016e+002, 5.664578e+002
7.365837e+002, 5.670897e+002
7.370659e+002, 5.677271e+002
7.375480e+002, 5.686302e+002
7.380301e+002, 5.690316e+002
7.385122e+002, 5.675776e+002
7.389943e+002, 5.650419e+002
7.394764e+002, 5.634338e+002
7.399586e+002, 5.644413e+002
7.404407e+002, 5.654229e+002
7.409228e+002, 5.652171e+002
7.414049e+002, 5.641879e+002
7.418870e+002, 5.640732e+002
7.423691e+002, 5.652828e+002
7.428513e+002, 5.663085e+002
7.433334e+002, 5.664716e+002
7.438155e+002, 5.660289e+002
7.442976e+002, 5.661387e+002
7.447797e+002, 5.667698e+002
7.452618e+002, 5.672731e+002
7.457440e+002, 5.670499e+002
7.462261e+002, 5.666053e+002
7.467082e+002, 5.665559e+002
7.471903e+002, 5.668809e+002
7.476724e+002, 5.671970e+002
7.481545e+002, 5.675646e+002
7.486367e+002, 5.676778e+002
7.491188e+002, 5.670651e+002
7.496009e+002, 5.655374e+002
7.500830e+002, 5.653512e+002
7.505651e+002, 5.671181e+002
7.510472e+002, 5.690909e+002
7.515294e+002, 5.703513e+002
7.520115e+002, 5.709085e+002
7.524936e+002, 5.707255e+002
7.529757e+002, 5.697727e+002
7.534578e+002, 5.685660e+002
7.539399e+002, 5.670940e+002
7.544221e+002, 5.658577e+002
7.549042e+002, 5.658797e+002
7.553863e+002, 5.673674e+002
7.558684e+002, 5.687306e+002
7.563505e+002, 5.691664e+002
7.568326e+002, 5.691564e+002
7.573148e+002, 5.689894e+002
7.577969e+002, 5.684183e+002
7.582790e+002, 5.685562e+002
7.587611e+002, 5.699776e+002
7.592432e+002, 5.713405e+002
7.597253e+002, 5.710925e+002
7.602075e+002, 5.691651e+002
7.606896e+002, 5.687496e+002
7.611717e+002, 5.702609e+002
7.616538e+002, 5.723386e+002
7.621359e+002, 5.739746e+002
7.626180e+002, 5.750333e+002
7.631002e+002, 5.750846e+002
7.635823e+002, 5.737535e+002
7.640644e+002, 5.724327e+002
7.645465e+002, 5.716117e+002
7.650286e+002, 5.713171e+002
7.655107e+002, 5.715905e+002
7.659929e+002, 5.731452e+002
7.664750e+002, 5.741932e+002
7.669571e+002, 5.745468e+002
7.674392e+002, 5.745970e+002
7.679213e+002, 5.747740e+002
7.684034e+002, 5.750746e+002
7.688856e+002, 5.756583e+002
7.693677e+002, 5.765953e+002
7.698498e+002, 5.776483e+002
7.703319e+002, 5.785831e+002
7.708140e+002, 5.793942e+002
7.712961e+002, 5.800891e+002
7.717783e+002, 5.806894e+002
7.722604e+002, 5.811191e+002
7.727425e+002, 5.810821e+002
7.732246e+002, 5.809192e+002
7.737067e+002, 5.811679e+002
7.741888e+002, 5.824564e+002
7.746710e+002, 5.833114e+002
7.751531e+002, 5.835662e+002
7.756352e+002, 5.833713e+002
7.761173e+002, 5.827013e+002
7.765994e+002, 5.815290e+002
7.770815e+002, 5.813754e+002
7.775637e+002, 5.829201e+002
7.780458e+002, 5.849865e+002
7.785279e+002, 5.859742e+002
7.790100e+002, 5.861667e+002
7.794921e+002, 5.862009e+002
7.799742e+002, 5.861876e+002
7.804564e+002, 5.862321e+002
7.809385e+002, 5.861776e+002
7.814206e+002, 5.862313e+002
7.819027e+002, 5.869031e+002
7.823848e+002, 5.887379e+002
7.828669e+002, 5.902928e+002
7.833491e+002, 5.914506e+002
7.838312e+002, 5.921185e+002
7.843133e+002, 5.918440e+002
7.847954e+002, 5.906584e+002
7.852775e+002, 5.896364e+002
7.857596e+002, 5.891350e+002
7.862418e+002, 5.890147e+002
7.867239e+002, 5.890947e+002
7.872060e+002, 5.894070e+002
7.876881e+002, 5.900339e+002
7.881702e+002, 5.919357e+002
7.886523e+002, 5.931581e+002
7.891345e+002, 5.923323e+002
7.896166e+002, 5.902012e+002
7.900987e+002, 5.889637e+002
7.905808e+002, 5.887429e+002
7.910629e+002, 5.893206e+002
7.915450e+002, 5.909453e+002
7.920272e+002, 5.931224e+002
7.925093e+002, 5.943857e+002
7.929914e+002, 5.947996e+002
7.934735e+002, 5.949083e+002
7.939556e+002, 5.947488e+002
7.944377e+002, 5.946031e+002
7.949199e+002, 5.949493e+002
7.954020e+002, 5.955911e+002
7.958841e+002, 5.959952e+002
7.963662e+002, 5.959046e+002
7.968483e+002, 5.956019e+002
7.973304e+002, 5.948387e+002
7.978126e+002, 5.939276e+002
7.982947e+002, 5.939352e+002
7.987768e+002, 5.952145e+002
7.992589e+002, 5.964254e+002
7.997410e+002, 5.971573e+002
8.002231e+002, 5.976035e+002
8.007053e+002, 5.982875e+002
8.011874e+002, 5.991584e+002
8.016695e+002, 5.999349e+002
8.021516e+002, 6.002185e+002
8.026337e+002, 6.005760e+002
8.031158e+002, 6.019061e+002
8.035980e+002, 6.037284e+002
8.040801e+002, 6.047756e+002
8.045622e+002, 6.025908e+002
8.050443e+002, 6.020515e+002
8.055264e+002, 6.057117e+002
8.060085e+002, 6.116907e+002
8.064907e+002, 6.133790e+002
8.069728e+002, 6.097990e+002
8.074549e+002, 6.070530e+002
8.079370e+002, 6.075410e+002
8.084191e+002, 6.096490e+002
8.089012e+002, 6.100397e+002
8.093834e+002, 6.091248e+002
8.098655e+002, 6.083836e+002
8.103476e+002, 6.084830e+002
8.108297e+002, 6.090450e+002
8.113118e+002, 6.101701e+002
8.117939e+002, 6.115995e+002
8.122761e+002, 6.125480e+002
8.127582e+002, 6.125074e+002
8.132403e+002, 6.125176e+002
8.137224e+002, 6.126557e+002
8.142045e+002, 6.130393e+002
8.146866e+002, 6.143207e+002
8.151688e+002, 6.164987e+002
8.156509e+002, 6.179650e+002
8.161330e+002, 6.177546e+002
8.166151e+002, 6.169857e+002
8.170972e+002, 6.171299e+002
8.175793e+002, 6.180355e+002
8.180615e+002, 6.193204e+002
8.185436e+002, 6.213725e+002
8.190257e+002, 6.231586e+002
8.195078e+002, 6.242176e+002
8.199899e+002, 6.246791e+002
8.204720e+002, 6.249800e+002
8.209542e+002, 6.252159e+002
8.214363e+002, 6.249132e+002
8.219184e+002, 6.235261e+002
8.224005e+002, 6.220338e+002
8.228826e+002, 6.231907e+002
8.233647e+002, 6.265070e+002
8.238469e+002, 6.290807e+002
8.243290e+002, 6.296512e+002
8.248111e+002, 6.293709e+002
8.252932e+002, 6.290068e+002
8.257753e+002, 6.286149e+002
8.262574e+002, 6.283118e+002
8.267396e+002, 6.274657e+002
8.272217e+002, 6.276176e+002
8.277038e+002, 6.298242e+002
8.281859e+002, 6.327272e+002
8.286681e+002, 6.335762e+002
8.291502e+002, 6.320158e+002
8.296323e+002, 6.308459e+002
8.301144e+002, 6.306871e+002
8.305966e+002, 6.312139e+002
8.310787e+002, 6.324616e+002
8.315608e+002, 6.339655e+002
8.320429e+002, 6.345344e+002
8.325250e+002, 6.327656e+002
8.330071e+002, 6.315784e+002
8.334893e+002, 6.332573e+002
8.339714e+002, 6.361982e+002
8.344535e+002, 6.377897e+002
8.349356e+002, 6.366480e+002
8.354177e+002, 6.366779e+002
8.358998e+002, 6.385740e+002
8.363820e+002, 6.412242e+002
8.368641e+002, 6.432293e+002
8.373462e+002, 6.445666e+002
8.378283e+002, 6.449081e+002
8.383104e+002, 6.438511e+002
8.387925e+002, 6.429923e+002
8.392747e+002, 6.442050e+002
8.397568e+002, 6.464869e+002
8.402389e+002, 6.485032e+002
8.407210e+002, 6.500479e+002
8.412031e+002, 6.510436e+002
8.416852e+002, 6.508585e+002
8.421674e+002, 6.505610e+002
8.426495e+002, 6.513112e+002
8.431316e+002, 6.534193e+002
8.436137e+002, 6.547168e+002
8.440958e+002, 6.549138e+002
8.445779e+002, 6.548906e+002
8.450601e+002, 6.555953e+002
8.455422e+002, 6.568538e+002
8.460243e+002, 6.583726e+002
8.465064e+002, 6.601510e+002
8.469885e+002, 6.619092e+002
8.474706e+002, 6.632125e+002
8.479528e+002, 6.646144e+002
8.484349e+002, 6.667592e+002
8.489170e+002, 6.703548e+002
8.493991e+002, 6.725428e+002
8.498812e+002, 6.728336e+002
8.503633e+002, 6.726852e+002
8.508455e+002, 6.729172e+002
8.513276e+002, 6.736645e+002
8.518097e+002, 6.762675e+002
8.522918e+002, 6.808568e+002
8.527739e+002, 6.852277e+002
8.532560e+002, 6.876163e+002
8.537382e+002, 6.890026e+002
8.542203e+002, 6.901217e+002
8.547024e+002, 6.910070e+002
8.551845e+002, 6.924236e+002
8.556666e+002, 6.949758e+002
8.561487e+002, 6.976093e+002
8.566309e+002, 6.997567e+002
8.571130e+002, 7.014005e+002
8.575951e+002, 7.037437e+002
8.580772e+002, 7.068401e+002
8.585593e+002, 7.100941e+002
8.590414e+002, 7.136074e+002
8.595236e+002, 7.168156e+002
8.600057e+002, 7.184360e+002
8.604878e+002, 7.186862e+002
8.609699e+002, 7.192092e+002
8.614520e+002, 7.208773e+002
8.619341e+002, 7.228694e+002
8.624163e+002, 7.250081e+002
8.628984e+002, 7.272227e+002
8.633805e+002, 7.289412e+002
8.638626e+002, 7.300556e+002
8.643447e+002, 7.311446e+002
8.648268e+002, 7.326713e+002
8.653090e+002, 7.341620e+002
8.657911e+002, 7.339709e+002
8.662732e+002, 7.325269e+002
8.667553e+002, 7.316198e+002
8.672374e+002, 7.333289e+002
8.677195e+002, 7.346908e+002
8.682017e+002, 7.335251e+002
8.686838e+002, 7.305833e+002
8.691659e+002, 7.280694e+002
8.696480e+002, 7.263331e+002
8.701301e+002, 7.247902e+002
8.706122e+002, 7.236396e+002
8.710944e+002, 7.223362e+002
8.715765e+002, 7.193130e+002
8.720586e+002, 7.148484e+002
8.725407e+002, 7.111423e+002
8.730228e+002, 7.092963e+002
8.735049e+002, 7.074932e+002
8.739871e+002, 7.037720e+002
8.744692e+002, 6.990086e+002
8.749513e+002, 6.945042e+002
8.754334e+002, 6.906772e+002
8.759155e+002, 6.870537e+002
8.763976e+002, 6.832959e+002
8.768798e+002, 6.799464e+002
8.773619e+002, 6.778713e+002
8.778440e+002, 6.771829e+002
8.783261e+002, 6.758110e+002
8.788082e+002, 6.734855e+002
8.792903e+002, 6.705640e+002
8.797725e+002, 6.667238e+002
8.802546e+002, 6.627756e+002
8.807367e+002, 6.600109e+002
8.812188e+002, 6.588536e+002
8.817009e+002, 6.578677e+002
8.821830e+002, 6.569464e+002
8.826652e+002, 6.556703e+002
8.831473e+002, 6.536858e+002
8.836294e+002, 6.508082e+002
8.841115e+002, 6.483347e+002
8.845936e+002, 6.462545e+002
8.850757e+002, 6.446414e+002
8.855579e+002, 6.436027e+002
8.860400e+002, 6.430426e+002
8.865221e+002, 6.430067e+002
8.870042e+002, 6.434283e+002
8.874863e+002, 6.434587e+002
8.879684e+002, 6.423870e+002
8.884506e+002, 6.410394e+002
8.889327e+002, 6.397631e+002
8.894148e+002, 6.385889e+002
8.898969e+002, 6.377653e+002
8.903790e+002, 6.374893e+002
8.908611e+002, 6.369289e+002
8.913433e+002, 6.354172e+002
8.918254e+002, 6.335771e+002
8.923075e+002, 6.333634e+002
8.927896e+002, 6.343777e+002
8.932717e+002, 6.349177e+002
8.937538e+002, 6.333231e+002
8.942360e+002, 6.317709e+002
8.947181e+002, 6.317944e+002
8.952002e+002, 6.328256e+002
8.956823e+002, 6.333731e+002
8.961644e+002, 6.331649e+002
8.966465e+002, 6.328738e+002
8.971287e+002, 6.326780e+002
8.976108e+002, 6.323559e+002
8.980929e+002, 6.311570e+002
8.985750e+002, 6.293851e+002
8.990571e+002, 6.285787e+002
8.995392e+002, 6.294393e+002
9.000214e+002, 6.304487e+002
9.005035e+002, 6.302980e+002
9.009856e+002, 6.296627e+002
9.014677e+002, 6.293641e+002
9.019498e+002, 6.303054e+002
9.024319e+002, 6.301140e+002
9.029141e+002, 6.280634e+002
9.033962e+002, 6.259307e+002
9.038783e+002, 6.255646e+002
9.043604e+002, 6.267580e+002
9.048425e+002, 6.273355e+002
9.053246e+002, 6.271406e+002
9.058068e+002, 6.268303e+002
9.062889e+002, 6.269570e+002
9.067710e+002, 6.272131e+002
9.072531e+002, 6.273091e+002
9.077352e+002, 6.272029e+002
9.082173e+002, 6.271016e+002
9.086995e+002, 6.268778e+002
9.091816e+002, 6.268883e+002
9.096637e+002, 6.273990e+002
9.101458e+002, 6.282971e+002
9.106279e+002, 6.287606e+002
9.111100e+002, 6.288108e+002
9.115922e+002, 6.288497e+002
9.120743e+002, 6.293043e+002
9.125564e+002, 6.297092e+002
9.130385e+002, 6.294681e+002
9.135206e+002, 6.287762e+002
9.140027e+002, 6.282230e+002
9.144849e+002, 6.280967e+002
9.149670e+002, 6.279610e+002
9.154491e+002, 6.276371e+002
9.159312e+002, 6.273279e+002
9.164133e+002, 6.275839e+002
9.168954e+002, 6.283887e+002
9.173776e+002, 6.289482e+002
9.178597e+002, 6.290967e+002
9.183418e+002, 6.288680e+002
9.188239e+002, 6.278539e+002
9.193060e+002, 6.266503e+002
9.197881e+002, 6.261971e+002
9.202703e+002, 6.275135e+002
9.207524e+002, 6.278620e+002
9.212345e+002, 6.258322e+002
9.217166e+002, 6.237851e+002
9.221987e+002, 6.240155e+002
9.226808e+002, 6.266508e+002
9.231630e+002, 6.278037e+002
9.236451e+002, 6.272385e+002
9.241272e+002, 6.264786e+002
9.246093e+002, 6.269964e+002
9.250914e+002, 6.279368e+002
9.255735e+002, 6.284191e+002
9.260557e+002, 6.283596e+002
9.265378e+002, 6.278846e+002
9.270199e+002, 6.264219e+002
9.275020e+002, 6.251898e+002
9.279841e+002, 6.244983e+002
9.284662e+002, 6.243842e+002
9.289484e+002, 6.254714e+002
9.294305e+002, 6.277438e+002
9.299126e+002, 6.291000e+002
9.303947e+002, 6.278663e+002
9.308768e+002, 6.259435e+002
9.313589e+002, 6.255737e+002
9.318411e+002, 6.262429e+002
9.323232e+002, 6.268270e+002
9.328053e+002, 6.271105e+002
9.332874e+002, 6.270965e+002
9.337695e+002, 6.267115e+002
9.342516e+002, 6.261312e+002
9.347338e+002, 6.255330e+002
9.352159e+002, 6.249144e+002
9.356980e+002, 6.247055e+002
9.361801e+002, 6.250351e+002
9.366622e+002, 6.254449e+002
9.371443e+002, 6.260464e+002
9.376265e+002, 6.261617e+002
9.381086e+002, 6.244495e+002
9.385907e+002, 6.196923e+002
9.390728e+002, 6.173399e+002
9.395549e+002, 6.197703e+002
9.400370e+002, 6.228984e+002
9.405192e+002, 6.244598e+002
9.410013e+002, 6.245250e+002
9.414834e+002, 6.245876e+002
9.419655e+002, 6.246396e+002
9.424476e+002, 6.243797e+002
9.429297e+002, 6.231742e+002
9.434119e+002, 6.218958e+002
9.438940e+002, 6.215590e+002
9.443761e+002, 6.219569e+002
9.448582e+002, 6.220529e+002
9.453403e+002, 6.212476e+002
9.458224e+002, 6.206418e+002
9.463046e+002, 6.205598e+002
9.467867e+002, 6.207327e+002
9.472688e+002, 6.204821e+002
9.477509e+002, 6.198669e+002
9.482330e+002, 6.193531e+002
9.487151e+002, 6.190842e+002
9.491973e+002, 6.189368e+002
9.496794e+002, 6.183908e+002
9.501615e+002, 6.180952e+002
9.506436e+002, 6.189658e+002
9.511257e+002, 6.225886e+002
9.516078e+002, 6.244453e+002
9.520900e+002, 6.238962e+002
9.525721e+002, 6.225641e+002
9.530542e+002, 6.217713e+002
9.535363e+002, 6.214025e+002
9.540184e+002, 6.205486e+002
9.545005e+002, 6.192150e+002
9.549827e+002, 6.183625e+002
9.554648e+002, 6.188879e+002
9.559469e+002, 6.199553e+002
9.564290e+002, 6.212571e+002
9.569111e+002, 6.226716e+002
9.573932e+002, 6.232168e+002
9.578754e+002, 6.224897e+002
9.583575e+002, 6.217072e+002
9.588396e+002, 6.211047e+002
9.593217e+002, 6.208213e+002
9.598038e+002, 6.215384e+002
9.602859e+002, 6.229254e+002
9.607681e+002, 6.238096e+002
9.612502e+002, 6.236136e+002
9.617323e+002, 6.230411e+002
9.622144e+002, 6.218987e+002
9.626965e+002, 6.209016e+002
9.631786e+002, 6.211439e+002
9.636608e+002, 6.235956e+002
9.641429e+002, 6.243788e+002
9.646250e+002, 6.229247e+002
9.651071e+002, 6.212719e+002
9.655892e+002, 6.219813e+002
9.660714e+002, 6.238761e+002
9.665535e+002, 6.241766e+002
9.670356e+002, 6.227070e+002
9.675177e+002, 6.214719e+002
9.679998e+002, 6.216337e+002
9.684819e+002, 6.221865e+002
9.689641e+002, 6.227110e+002
9.694462e+002, 6.231703e+002
9.699283e+002, 6.234044e+002
9.704104e+002, 6.234148e+002
9.708925e+002, 6.230734e+002
9.713746e+002, 6.219706e+002
9.718568e+002, 6.209557e+002
9.723389e+002, 6.217872e+002
9.728210e+002, 6.236299e+002
9.733031e+002, 6.247216e+002
9.737852e+002, 6.236238e+002
9.742673e+002, 6.227930e+002
9.747495e+002, 6.226021e+002
9.752316e+002, 6.229348e+002
9.757137e+002, 6.238635e+002
9.761958e+002, 6.254370e+002
9.766779e+002, 6.264971e+002
9.771600e+002, 6.269382e+002
9.776422e+002, 6.271807e+002
9.781243e+002, 6.278250e+002
9.786064e+002, 6.283405e+002
9.790885e+002, 6.280627e+002
9.795706e+002, 6.269346e+002
9.800527e+002, 6.258096e+002
9.805349e+002, 6.244296e+002
9.810170e+002, 6.237177e+002
9.814991e+002, 6.242609e+002
9.819812e+002, 6.255728e+002
9.824633e+002, 6.257514e+002
9.829454e+002, 6.250240e+002
9.834276e+002, 6.248281e+002
9.839097e+002, 6.261899e+002
9.843918e+002, 6.276531e+002
9.848739e+002, 6.283727e+002
9.853560e+002, 6.284623e+002
9.858381e+002, 6.280242e+002
9.863203e+002, 6.267225e+002
9.868024e+002, 6.257485e+002
9.872845e+002, 6.251622e+002
9.877666e+002, 6.248890e+002
9.882487e+002, 6.248688e+002
9.887308e+002, 6.251044e+002
9.892130e+002, 6.257547e+002
9.896951e+002, 6.268043e+002
9.901772e+002, 6.275760e+002
9.906593e+002, 6.274289e+002
9.911414e+002, 6.271512e+002
9.916235e+002, 6.270726e+002
9.921057e+002, 6.272079e+002
9.925878e+002, 6.278584e+002
9.930699e+002, 6.291664e+002
9.935520e+002, 6.298163e+002
9.940341e+002, 6.291415e+002
9.945162e+002, 6.279031e+002
9.949984e+002, 6.268553e+002
9.954805e+002, 6.261270e+002
9.959626e+002, 6.260018e+002
9.964447e+002, 6.274750e+002
9.969268e+002, 6.280107e+002
9.974089e+002, 6.266205e+002
9.978911e+002, 6.248844e+002
9.983732e+002, 6.241139e+002
9.988553e+002, 6.243109e+002
9.993374e+002, 6.254796e+002
9.998195e+002, 6.276324e+002
1.000302e+003, 6.293455e+002
1.000784e+003, 6.294658e+002
1.001266e+003, 6.287610e+002
1.001748e+003, 6.272433e+002
1.002230e+003, 6.251820e+002
1.002712e+003, 6.249618e+002
1.003194e+003, 6.277678e+002
1.003676e+003, 6.298955e+002
1.004159e+003, 6.302019e+002
1.004641e+003, 6.295156e+002
1.005123e+003, 6.295817e+002
1.005605e+003, 6.300927e+002
1.006087e+003, 6.300068e+002
1.006569e+003, 6.286183e+002
1.007051e+003, 6.276797e+002
1.007533e+003, 6.283104e+002
1.008016e+003, 6.296315e+002
1.008498e+003, 6.309368e+002
1.008980e+003, 6.323358e+002
1.009462e+003, 6.330039e+002
1.009944e+003, 6.328881e+002
1.010426e+003, 6.325110e+002
1.010908e+003, 6.320899e+002
1.011390e+003, 6.317468e+002
1.011872e+003, 6.316690e+002
1.012355e+003, 6.318188e+002
1.012837e+003, 6.320233e+002
1.013319e+003, 6.320834e+002
1.013801e+003, 6.323995e+002
1.014283e+003, 6.332562e+002
1.014765e+003, 6.341933e+002
1.015247e+003, 6.341007e+002
1.015729e+003, 6.331761e+002
1.016211e+003, 6.330407e+002
1.016694e+003, 6.341200e+002
1.017176e+003, 6.354760e+002
1.017658e+003, 6.371735e+002
1.018140e+003, 6.382537e+002
1.018622e+003, 6.375087e+002
1.019104e+003, 6.344461e+002
1.019586e+003, 6.325107e+002
1.020068e+003, 6.318455e+002
1.020551e+003, 6.318954e+002
1.021033e+003, 6.327050e+002
1.021515e+003, 6.338135e+002
1.021997e+003, 6.342302e+002
1.022479e+003, 6.340670e+002
1.022961e+003, 6.336426e+002
1.023443e+003, 6.317960e+002
1.023925e+003, 6.313412e+002
1.024407e+003, 6.343627e+002
1.024890e+003, 6.382823e+002
1.025372e+003, 6.398203e+002
1.025854e+003, 6.388914e+002
1.026336e+003, 6.379376e+002
1.026818e+003, 6.371498e+002
1.027300e+003, 6.366777e+002
1.027782e+003, 6.366171e+002
1.028264e+003, 6.369479e+002
1.028746e+003, 6.378634e+002
1.029229e+003, 6.393561e+002
1.029711e+003, 6.403076e+002
1.030193e+003, 6.404746e+002
1.030675e+003, 6.404958e+002
1.031157e+003, 6.405035e+002
1.031639e+003, 6.405851e+002
1.032121e+003, 6.410787e+002
1.032603e+003, 6.418298e+002
1.033086e+003, 6.423318e+002
1.033568e+003, 6.423802e+002
1.034050e+003, 6.422861e+002
1.034532e+003, 6.419664e+002
1.035014e+003, 6.417434e+002
1.035496e+003, 6.420582e+002
1.035978e+003, 6.431395e+002
1.036460e+003, 6.427768e+002
1.036943e+003, 6.408499e+002
1.037425e+003, 6.394847e+002
1.037907e+003, 6.410353e+002
1.038389e+003, 6.433632e+002
1.038871e+003, 6.442031e+002
1.039353e+003, 6.437614e+002
1.039835e+003, 6.430429e+002
1.040317e+003, 6.412590e+002
1.040799e+003, 6.410002e+002
1.041281e+003, 6.431721e+002
1.041764e+003, 6.462025e+002
1.042246e+003, 6.477158e+002
1.042728e+003, 6.479969e+002
1.043210e+003, 6.477830e+002
1.043692e+003, 6.471245e+002
1.044174e+003, 6.466120e+002
1.044656e+003, 6.466401e+002
1.045138e+003, 6.468757e+002
1.045621e+003, 6.471923e+002
1.046103e+003, 6.475592e+002
1.046585e+003, 6.474771e+002
1.047067e+003, 6.468995e+002
1.047549e+003, 6.465813e+002
1.048031e+003, 6.471707e+002
1.048513e+003, 6.477667e+002
1.048995e+003, 6.468009e+002
1.049478e+003, 6.452180e+002
1.049960e+003, 6.446273e+002
1.050442e+003, 6.467196e+002
1.050924e+003, 6.477992e+002
1.051406e+003, 6.474523e+002
1.051888e+003, 6.467820e+002
1.052370e+003, 6.470078e+002
1.052852e+003, 6.477399e+002
1.053334e+003, 6.473538e+002
1.053817e+003, 6.459449e+002
1.054299e+003, 6.450287e+002
1.054781e+003, 6.459911e+002
1.055263e+003, 6.470627e+002
1.055745e+003, 6.475167e+002
1.056227e+003, 6.474670e+002
1.056709e+003, 6.469757e+002
1.057191e+003, 6.459893e+002
1.057673e+003, 6.455283e+002
1.058156e+003, 6.457895e+002
1.058638e+003, 6.466789e+002
1.059120e+003, 6.489498e+002
1.059602e+003, 6.512869e+002
1.060084e+003, 6.521150e+002
1.060566e+003, 6.509149e+002
1.061048e+003, 6.498311e+002
1.061530e+003, 6.487539e+002
1.062013e+003, 6.482988e+002
1.062495e+003, 6.490815e+002
1.062977e+003, 6.504414e+002
1.063459e+003, 6.506351e+002
1.063941e+003, 6.500234e+002
1.064423e+003, 6.496627e+002
1.064905e+003, 6.505787e+002
1.065387e+003, 6.509439e+002
1.065870e+003, 6.495377e+002
1.066352e+003, 6.478470e+002
1.066834e+003, 6.472286e+002
1.067316e+003, 6.476960e+002
1.067798e+003, 6.481325e+002
1.068280e+003, 6.485034e+002
1.068762e+003, 6.488011e+002
1.069244e+003, 6.486224e+002
1.069726e+003, 6.487242e+002
1.070208e+003, 6.503030e+002
1.070691e+003, 6.527841e+002
1.071173e+003, 6.534532e+002
1.071655e+003, 6.514706e+002
1.072137e+003, 6.502721e+002
1.072619e+003, 6.506234e+002
1.073101e+003, 6.515214e+002
1.073583e+003, 6.517184e+002
1.074065e+003, 6.514950e+002
1.074548e+003, 6.513448e+002
1.075030e+003, 6.513860e+002
1.075512e+003, 6.511129e+002
1.075994e+003, 6.496565e+002
1.076476e+003, 6.488577e+002
1.076958e+003, 6.497234e+002
1.077440e+003, 6.517189e+002
1.077922e+003, 6.531535e+002
1.078405e+003, 6.539728e+002
1.078887e+003, 6.538010e+002
1.079369e+003, 6.517191e+002
1.079851e+003, 6.499998e+002
1.080333e+003, 6.498983e+002
1.080815e+003, 6.508816e+002
1.081297e+003, 6.525594e+002
1.081779e+003, 6.553821e+002
1.082261e+003, 6.559595e+002
1.082744e+003, 6.541200e+002
1.083226e+003, 6.522626e+002
1.083708e+003, 6.522228e+002
1.084190e+003, 6.529722e+002
1.084672e+003, 6.535739e+002
1.085154e+003, 6.540493e+002
1.085636e+003, 6.546000e+002
1.086118e+003, 6.555834e+002
1.086601e+003, 6.558613e+002
1.087083e+003, 6.550380e+002
1.087565e+003, 6.540991e+002
1.088047e+003, 6.546083e+002
1.088529e+003, 6.558444e+002
1.089011e+003, 6.561278e+002
1.089493e+003, 6.552780e+002
1.089975e+003, 6.547578e+002
1.090458e+003, 6.552820e+002
1.090940e+003, 6.561674e+002
1.091422e+003, 6.573090e+002
1.091904e+003, 6.585253e+002
1.092386e+003, 6.595375e+002
1.092868e+003, 6.601998e+002
1.093350e+003, 6.591961e+002
1.093832e+003, 6.553801e+002
1.094314e+003, 6.523226e+002
1.094797e+003, 6.531856e+002
1.095279e+003, 6.554798e+002
1.095761e+003, 6.570898e+002
1.096243e+003, 6.579460e+002
1.096725e+003, 6.578092e+002
1.097207e+003, 6.565667e+002
1.097689e+003, 6.556884e+002
1.098171e+003, 6.561639e+002
1.098653e+003, 6.572517e+002
1.099136e+003, 6.585984e+002
1.099618e+003, 6.598157e+002
1.100100e+003, 6.601194e+002
1.100582e+003, 6.585029e+002
1.101064e+003, 6.575575e+002
1.101546e+003, 6.574818e+002
1.102028e+003, 6.577227e+002
1.102510e+003, 6.577390e+002
1.102993e+003, 6.576995e+002
1.103475e+003, 6.580258e+002
1.103957e+003, 6.586786e+002
1.104439e+003, 6.593199e+002
1.104921e+003, 6.600521e+002
1.105403e+003, 6.604047e+002
1.105885e+003, 6.601105e+002
1.106367e+003, 6.595720e+002
1.106849e+003, 6.595681e+002
1.107332e+003, 6.599821e+002
1.107814e+003, 6.600451e+002
1.108296e+003, 6.595957e+002
1.108778e+003, 6.595212e+002
1.109260e+003, 6.604122e+002
1.109742e+003, 6.618658e+002
1.110224e+003, 6.640316e+002
1.110706e+003, 6.665704e+002
1.111188e+003, 6.678574e+002
1.111671e+003, 6.678812e+002
1.112153e+003, 6.671949e+002
1.112635e+003, 6.656959e+002
1.113117e+003, 6.642466e+002
1.113599e+003, 6.636266e+002
1.114081e+003, 6.635693e+002
1.114563e+003, 6.638825e+002
1.115045e+003, 6.646582e+002
1.115528e+003, 6.651132e+002
1.116010e+003, 6.651880e+002
1.116492e+003, 6.652146e+002
1.116974e+003, 6.653997e+002
1.117456e+003, 6.656429e+002
1.117938e+003, 6.657801e+002
1.118420e+003, 6.658557e+002
1.118902e+003, 6.659580e+002
1.119385e+003, 6.666519e+002
1.119867e+003, 6.664415e+002
1.120349e+003, 6.648675e+002
1.120831e+003, 6.631927e+002
1.121313e+003, 6.626214e+002
1.121795e+003, 6.628656e+002
1.122277e+003, 6.631248e+002
1.122759e+003, 6.633823e+002
1.123241e+003, 6.637303e+002
1.123724e+003, 6.644373e+002
1.124206e+003, 6.649308e+002
1.124688e+003, 6.649730e+002
1.125170e+003, 6.647966e+002
1.125652e+003, 6.649515e+002
1.126134e+003, 6.652913e+002
1.126616e+003, 6.644661e+002
1.127098e+003, 6.622728e+002
1.127580e+003, 6.606384e+002
1.128063e+003, 6.615307e+002
1.128545e+003, 6.627686e+002
1.129027e+003, 6.627498e+002
1.129509e+003, 6.619756e+002
1.129991e+003, 6.624329e+002
1.130473e+003, 6.641671e+002
1.130955e+003, 6.652606e+002
1.131437e+003, 6.651125e+002
1.131920e+003, 6.646817e+002
1.132402e+003, 6.648445e+002
1.132884e+003, 6.651987e+002
1.133366e+003, 6.652662e+002
1.133848e+003, 6.649740e+002
1.134330e+003, 6.651963e+002
1.134812e+003, 6.660276e+002
1.135294e+003, 6.668274e+002
1.135776e+003, 6.672639e+002
1.136259e+003, 6.675911e+002
1.136741e+003, 6.680526e+002
1.137223e+003, 6.686678e+002
1.137705e+003, 6.695529e+002
1.138187e+003, 6.712503e+002
1.138669e+003, 6.717466e+002
1.139151e+003, 6.704919e+002
1.139633e+003, 6.694210e+002
1.140115e+003, 6.702465e+002
1.140598e+003, 6.719450e+002
1.141080e+003, 6.722780e+002
1.141562e+003, 6.716652e+002
1.142044e+003, 6.712864e+002
1.142526e+003, 6.716668e+002
1.143008e+003, 6.722346e+002
1.143490e+003, 6.731053e+002
1.143972e+003, 6.738454e+002
1.144455e+003, 6.738723e+002
1.144937e+003, 6.734333e+002
1.145419e+003, 6.733414e+002
1.145901e+003, 6.736003e+002
1.146383e+003, 6.739341e+002
1.146865e+003, 6.747425e+002
1.147347e+003, 6.748688e+002
1.147829e+003, 6.735805e+002
1.148312e+003, 6.718674e+002
1.148794e+003, 6.712770e+002
1.149276e+003, 6.716814e+002
1.149758e+003, 6.723697e+002
1.150240e+003, 6.732603e+002
1.150722e+003, 6.740438e+002
1.151204e+003, 6.745180e+002
1.151686e+003, 6.748177e+002
1.152168e+003, 6.749172e+002
1.152651e+003, 6.749286e+002
1.153133e+003, 6.752133e+002
1.153615e+003, 6.757539e+002
1.154097e+003, 6.762320e+002
1.154579e+003, 6.765752e+002
1.155061e+003, 6.768001e+002
1.155543e+003, 6.769367e+002
1.156025e+003, 6.769434e+002
1.156507e+003, 6.766437e+002
1.156990e+003, 6.761082e+002
1.157472e+003, 6.759891e+002
1.157954e+003, 6.762874e+002
1.158436e+003, 6.771516e+002
1.158918e+003, 6.788592e+002
1.159400e+003, 6.806179e+002
1.159882e+003, 6.818113e+002
1.160364e+003, 6.825059e+002
1.160847e+003, 6.826307e+002
1.161329e+003, 6.820513e+002
1.161811e+003, 6.820303e+002
1.162293e+003, 6.826944e+002
1.162775e+003, 6.831008e+002
1.163257e+003, 6.825937e+002
1.163739e+003, 6.817767e+002
1.164221e+003, 6.809957e+002
1.164703e+003, 6.805632e+002
1.165186e+003, 6.811283e+002
1.165668e+003, 6.838439e+002
1.166150e+003, 6.850129e+002
1.166632e+003, 6.843816e+002
1.167114e+003, 6.830950e+002
1.167596e+003, 6.812273e+002
1.168078e+003, 6.796902e+002
1.168560e+003, 6.803936e+002
1.169042e+003, 6.826593e+002
1.169525e+003, 6.846808e+002
1.170007e+003, 6.863924e+002
1.170489e+003, 6.870242e+002
1.170971e+003, 6.862457e+002
1.171453e+003, 6.851347e+002
1.171935e+003, 6.846071e+002
1.172417e+003, 6.845316e+002
1.172899e+003, 6.848020e+002
1.173382e+003, 6.853215e+002
1.173864e+003, 6.856531e+002
1.174346e+003, 6.851248e+002
1.174828e+003, 6.852444e+002
1.175310e+003, 6.864658e+002
1.175792e+003, 6.879388e+002
1.176274e+003, 6.887228e+002
1.176756e+003, 6.888777e+002
1.177239e+003, 6.883958e+002
1.177721e+003, 6.873348e+002
1.178203e+003, 6.864164e+002
1.178685e+003, 6.855038e+002
1.179167e+003, 6.854211e+002
1.179649e+003, 6.866160e+002
1.180131e+003, 6.883835e+002
1.180613e+003, 6.895143e+002
1.181095e+003, 6.901710e+002
1.181578e+003, 6.908698e+002
1.182060e+003, 6.917077e+002
1.182542e+003, 6.922792e+002
1.183024e+003, 6.924396e+002
1.183506e+003, 6.921894e+002
1.183988e+003, 6.912263e+002
1.184470e+003, 6.901406e+002
1.184952e+003, 6.908837e+002
1.185434e+003, 6.928298e+002
1.185917e+003, 6.935261e+002
1.186399e+003, 6.920557e+002
1.186881e+003, 6.912038e+002
1.187363e+003, 6.931261e+002
1.187845e+003, 6.951364e+002
1.188327e+003, 6.960248e+002
1.188809e+003, 6.959477e+002
1.189291e+003, 6.950408e+002
1.189774e+003, 6.936049e+002
1.190256e+003, 6.931215e+002
1.190738e+003, 6.943420e+002
1.191220e+003, 6.957465e+002
1.191702e+003, 6.968945e+002
1.192184e+003, 6.976661e+002
1.192666e+003, 6.979233e+002
1.193148e+003, 6.977426e+002
1.193630e+003, 6.975727e+002
1.194113e+003, 6.974274e+002
1.194595e+003, 6.974174e+002
1.195077e+003, 6.978524e+002
1.195559e+003, 6.979466e+002
1.196041e+003, 6.965800e+002
1.196523e+003, 6.953586e+002
1.197005e+003, 6.955297e+002
1.197487e+003, 6.970421e+002
1.197969e+003, 6.998629e+002
1.198452e+003, 7.035638e+002
1.198934e+003, 7.049948e+002
1.199416e+003, 6.998430e+002
1.199898e+003, 6.954324e+002
1.200380e+003, 6.963592e+002
1.200862e+003, 6.989474e+002
1.201344e+003, 6.995145e+002
1.201826e+003, 6.980717e+002
1.202309e+003, 6.975460e+002
1.202791e+003, 6.979100e+002
1.203273e+003, 6.986057e+002
1.203755e+003, 6.996164e+002
1.204237e+003, 7.005247e+002
1.204719e+003, 7.008806e+002
1.205201e+003, 7.011569e+002
1.205683e+003, 7.021286e+002
1.206166e+003, 7.037525e+002
1.206648e+003, 7.041337e+002
1.207130e+003, 7.032703e+002
1.207612e+003, 7.025026e+002
1.208094e+003, 7.029736e+002
1.208576e+003, 7.034657e+002
1.209058e+003, 7.030268e+002
1.209540e+003, 7.023779e+002
1.210022e+003, 7.026537e+002
1.210505e+003, 7.038163e+002
1.210987e+003, 7.047035e+002
1.211469e+003, 7.052318e+002
1.211951e+003, 7.052201e+002
1.212433e+003, 7.035638e+002
1.212915e+003, 7.024030e+002
1.213397e+003, 7.036157e+002
1.213879e+003, 7.057652e+002
1.214361e+003, 7.063524e+002
1.214844e+003, 7.054954e+002
1.215326e+003, 7.049052e+002
1.215808e+003, 7.047733e+002
1.216290e+003, 7.050880e+002
1.216772e+003, 7.066035e+002
1.217254e+003, 7.077257e+002
1.217736e+003, 7.070784e+002
1.218218e+003, 7.057032e+002
1.218701e+003, 7.059911e+002
1.219183e+003, 7.077499e+002
1.219665e+003, 7.087828e+002
1.220147e+003, 7.087336e+002
1.220629e+003, 7.082646e+002
1.221111e+003, 7.065384e+002
1.221593e+003, 7.059321e+002
1.222075e+003, 7.084854e+002
1.222557e+003, 7.125986e+002
1.223040e+003, 7.140911e+002
1.223522e+003, 7.132805e+002
1.224004e+003, 7.125440e+002
1.224486e+003, 7.123160e+002
1.224968e+003, 7.122178e+002
1.225450e+003, 7.121407e+002
1.225932e+003, 7.119994e+002
1.226414e+003, 7.116519e+002
1.226896e+003, 7.112750e+002
1.227379e+003, 7.115775e+002
1.227861e+003, 7.123861e+002
1.228343e+003, 7.126848e+002
1.228825e+003, 7.121666e+002
1.229307e+003, 7.116955e+002
1.229789e+003, 7.121266e+002
1.230271e+003, 7.122635e+002
1.230753e+003, 7.112883e+002
1.231236e+003, 7.097004e+002
1.231718e+003, 7.091569e+002
1.232200e+003, 7.095001e+002
1.232682e+003, 7.101749e+002
1.233164e+003, 7.110637e+002
1.233646e+003, 7.121633e+002
1.234128e+003, 7.141439e+002
1.234610e+003, 7.155211e+002
1.235093e+003, 7.154108e+002
1.235575e+003, 7.143268e+002
1.236057e+003, 7.134973e+002
1.236539e+003, 7.131033e+002
1.237021e+003, 7.140945e+002
1.237503e+003, 7.174396e+002
1.237985e+003, 7.194355e+002
1.238467e+003, 7.171182e+002
1.238949e+003, 7.150336e+002
1.239432e+003, 7.150876e+002
1.239914e+003, 7.168576e+002
1.240396e+003, 7.202361e+002
1.240878e+003, 7.241750e+002
1.241360e+003, 7.254202e+002
1.241842e+003, 7.220679e+002
1.242324e+003, 7.191365e+002
1.242806e+003, 7.177129e+002
1.243288e+003, 7.169492e+002
1.243771e+003, 7.164166e+002
1.244253e+003, 7.162672e+002
1.244735e+003, 7.172571e+002
1.245217e+003, 7.188814e+002
1.245699e+003, 7.198680e+002
1.246181e+003, 7.194377e+002
1.246663e+003, 7.196751e+002
1.247145e+003, 7.212355e+002
1.247628e+003, 7.224908e+002
1.248110e+003, 7.222465e+002
1.248592e+003, 7.214385e+002
1.249074e+003, 7.225378e+002
1.249556e+003, 7.244420e+002
1.250038e+003, 7.248861e+002
1.250520e+003, 7.222205e+002
1.251002e+003, 7.209109e+002
1.251484e+003, 7.214561e+002
1.251967e+003, 7.223507e+002
1.252449e+003, 7.228799e+002
1.252931e+003, 7.230735e+002
1.253413e+003, 7.225734e+002
1.253895e+003, 7.219081e+002
1.254377e+003, 7.220737e+002
1.254859e+003, 7.236346e+002
1.255341e+003, 7.250742e+002
1.255823e+003, 7.264456e+002
1.256306e+003, 7.274151e+002
1.256788e+003, 7.276653e+002
1.257270e+003, 7.275394e+002
1.257752e+003, 7.271682e+002
1.258234e+003, 7.268214e+002
1.258716e+003, 7.269785e+002
1.259198e+003, 7.277753e+002
1.259680e+003, 7.288472e+002
1.260163e+003, 7.303248e+002
1.260645e+003, 7.308917e+002
1.261127e+003, 7.290394e+002
1.261609e+003, 7.269313e+002
1.262091e+003, 7.266923e+002
1.262573e+003, 7.273359e+002
1.263055e+003, 7.274413e+002
1.263537e+003, 7.268326e+002
1.264020e+003, 7.268051e+002
1.264502e+003, 7.273425e+002
1.264984e+003, 7.275997e+002
1.265466e+003, 7.263419e+002
1.265948e+003, 7.255596e+002
1.266430e+003, 7.271227e+002
1.266912e+003, 7.294922e+002
1.267394e+003, 7.310115e+002
1.267876e+003, 7.316526e+002
1.268359e+003, 7.314440e+002
1.268841e+003, 7.305084e+002
1.269323e+003, 7.299541e+002
1.269805e+003, 7.307269e+002
1.270287e+003, 7.315563e+002
1.270769e+003, 7.317718e+002
1.271251e+003, 7.319160e+002
1.271733e+003, 7.325388e+002
1.272215e+003, 7.335359e+002
1.272698e+003, 7.339709e+002
1.273180e+003, 7.339189e+002
1.273662e+003, 7.336865e+002
1.274144e+003, 7.333843e+002
1.274626e+003, 7.329597e+002
1.275108e+003, 7.323597e+002
1.275590e+003, 7.317037e+002
1.276072e+003, 7.308145e+002
1.276555e+003, 7.299972e+002
1.277037e+003, 7.305060e+002
1.277519e+003, 7.320032e+002
1.278001e+003, 7.335196e+002
1.278483e+003, 7.350439e+002
1.278965e+003, 7.358693e+002
1.279447e+003, 7.357634e+002
1.279929e+003, 7.354537e+002
1.280411e+003, 7.354570e+002
1.280894e+003, 7.356467e+002
1.281376e+003, 7.357437e+002
1.281858e+003, 7.358518e+002
1.282340e+003, 7.362265e+002
1.282822e+003, 7.372469e+002
1.283304e+003, 7.378174e+002
1.283786e+003, 7.378478e+002
1.284268e+003, 7.378987e+002
1.284750e+003, 7.384630e+002
1.285233e+003, 7.391678e+002
1.285715e+003, 7.395816e+002
1.286197e+003, 7.398212e+002
1.286679e+003, 7.401019e+002
1.287161e+003, 7.404833e+002
1.287643e+003, 7.405258e+002
1.288125e+003, 7.401889e+002
1.288607e+003, 7.404213e+002
1.289090e+003, 7.428085e+002
1.289572e+003, 7.448113e+002
1.290054e+003, 7.438351e+002
1.290536e+003, 7.419343e+002
1.291018e+003, 7.417964e+002
1.291500e+003, 7.435045e+002
1.291982e+003, 7.445702e+002
1.292464e+003, 7.449939e+002
1.292947e+003, 7.448416e+002
1.293429e+003, 7.437524e+002
1.293911e+003, 7.426517e+002
1.294393e+003, 7.413002e+002
1.294875e+003, 7.407842e+002
1.295357e+003, 7.424965e+002
1.295839e+003, 7.458375e+002
1.296321e+003, 7.473918e+002
1.296803e+003, 7.475891e+002
1.297286e+003, 7.479037e+002
1.297768e+003, 7.496791e+002
1.298250e+003, 7.501838e+002
1.298732e+003, 7.482819e+002
1.299214e+003, 7.466935e+002
1.299696e+003, 7.478976e+002
1.300178e+003, 7.502960e+002
1.300660e+003, 7.511897e+002
##END=



