##NAMES=Crandallite
##RRUFFID=R140429
##IDEAL CHEMISTRY=CaAl_3_(PO_4_)(PO_3_OH)(OH)_6_
##LOCALITY=Savannah Pit, Tyrone mine, Grant County, New Mexico, USA
##OWNER=RRUFF
##SOURCE=Ron Gibbs
##DESCRIPTION=Colorless, hexagonal platy crystals
##STATUS=The identification of this mineral has been confirmed by single-crystal X-ray diffraction.
##URL=rruff.info/R140429
8.758203e+001, 1.107356e+003
8.806415e+001, 1.095910e+003
8.854626e+001, 1.093936e+003
8.902838e+001, 1.105462e+003
8.951050e+001, 1.120077e+003
8.999261e+001, 1.134350e+003
9.047473e+001, 1.147990e+003
9.095685e+001, 1.161395e+003
9.143896e+001, 1.174763e+003
9.192108e+001, 1.188173e+003
9.240320e+001, 1.202217e+003
9.288531e+001, 1.203875e+003
9.336743e+001, 1.184075e+003
9.384955e+001, 1.146957e+003
9.433167e+001, 1.109848e+003
9.481378e+001, 1.071569e+003
9.529590e+001, 1.038413e+003
9.577802e+001, 1.009905e+003
9.626013e+001, 9.855533e+002
9.674225e+001, 9.653995e+002
9.722437e+001, 9.487952e+002
9.770648e+001, 9.332147e+002
9.818860e+001, 9.178029e+002
9.867072e+001, 9.032707e+002
9.915283e+001, 8.900267e+002
9.963495e+001, 8.779348e+002
1.001171e+002, 8.664960e+002
1.005992e+002, 8.549880e+002
1.010813e+002, 8.422841e+002
1.015634e+002, 8.316490e+002
1.020455e+002, 8.224919e+002
1.025277e+002, 8.147792e+002
1.030098e+002, 8.086082e+002
1.034919e+002, 8.039454e+002
1.039740e+002, 8.004784e+002
1.044561e+002, 7.974230e+002
1.049382e+002, 7.971064e+002
1.054204e+002, 7.943860e+002
1.059025e+002, 7.874549e+002
1.063846e+002, 7.777551e+002
1.068667e+002, 7.675428e+002
1.073488e+002, 7.579156e+002
1.078309e+002, 7.490625e+002
1.083131e+002, 7.420505e+002
1.087952e+002, 7.374823e+002
1.092773e+002, 7.338182e+002
1.097594e+002, 7.303441e+002
1.102415e+002, 7.270148e+002
1.107236e+002, 7.239791e+002
1.112058e+002, 7.215187e+002
1.116879e+002, 7.194676e+002
1.121700e+002, 7.173047e+002
1.126521e+002, 7.152634e+002
1.131342e+002, 7.129830e+002
1.136163e+002, 7.096002e+002
1.140985e+002, 7.044305e+002
1.145806e+002, 6.995715e+002
1.150627e+002, 6.967437e+002
1.155448e+002, 6.953055e+002
1.160269e+002, 6.937151e+002
1.165090e+002, 6.905729e+002
1.169912e+002, 6.859344e+002
1.174733e+002, 6.824553e+002
1.179554e+002, 6.812936e+002
1.184375e+002, 6.804754e+002
1.189196e+002, 6.791217e+002
1.194017e+002, 6.772818e+002
1.198839e+002, 6.755707e+002
1.203660e+002, 6.748459e+002
1.208481e+002, 6.758669e+002
1.213302e+002, 6.759143e+002
1.218123e+002, 6.747139e+002
1.222944e+002, 6.729388e+002
1.227766e+002, 6.708715e+002
1.232587e+002, 6.686332e+002
1.237408e+002, 6.663074e+002
1.242229e+002, 6.640746e+002
1.247050e+002, 6.618412e+002
1.251871e+002, 6.598259e+002
1.256693e+002, 6.583203e+002
1.261514e+002, 6.569551e+002
1.266335e+002, 6.552237e+002
1.271156e+002, 6.528583e+002
1.275977e+002, 6.501077e+002
1.280798e+002, 6.477433e+002
1.285620e+002, 6.461058e+002
1.290441e+002, 6.442314e+002
1.295262e+002, 6.416981e+002
1.300083e+002, 6.385914e+002
1.304904e+002, 6.352377e+002
1.309725e+002, 6.315530e+002
1.314547e+002, 6.278864e+002
1.319368e+002, 6.248897e+002
1.324189e+002, 6.227382e+002
1.329010e+002, 6.211023e+002
1.333831e+002, 6.197247e+002
1.338652e+002, 6.186325e+002
1.343474e+002, 6.176806e+002
1.348295e+002, 6.168452e+002
1.353116e+002, 6.160986e+002
1.357937e+002, 6.154398e+002
1.362758e+002, 6.149283e+002
1.367579e+002, 6.144596e+002
1.372401e+002, 6.138229e+002
1.377222e+002, 6.132960e+002
1.382043e+002, 6.120589e+002
1.386864e+002, 6.094453e+002
1.391685e+002, 6.061098e+002
1.396507e+002, 6.030247e+002
1.401328e+002, 6.009152e+002
1.406149e+002, 5.997312e+002
1.410970e+002, 5.982119e+002
1.415791e+002, 5.956900e+002
1.420612e+002, 5.934469e+002
1.425434e+002, 5.918132e+002
1.430255e+002, 5.907620e+002
1.435076e+002, 5.901523e+002
1.439897e+002, 5.899398e+002
1.444718e+002, 5.903140e+002
1.449539e+002, 5.899262e+002
1.454361e+002, 5.885194e+002
1.459182e+002, 5.867465e+002
1.464003e+002, 5.848241e+002
1.468824e+002, 5.828360e+002
1.473645e+002, 5.808929e+002
1.478466e+002, 5.790457e+002
1.483288e+002, 5.771585e+002
1.488109e+002, 5.761517e+002
1.492930e+002, 5.769527e+002
1.497751e+002, 5.782246e+002
1.502572e+002, 5.785139e+002
1.507393e+002, 5.774427e+002
1.512215e+002, 5.757394e+002
1.517036e+002, 5.742730e+002
1.521857e+002, 5.730133e+002
1.526678e+002, 5.719263e+002
1.531499e+002, 5.712167e+002
1.536320e+002, 5.706859e+002
1.541142e+002, 5.698007e+002
1.545963e+002, 5.682860e+002
1.550784e+002, 5.665928e+002
1.555605e+002, 5.651749e+002
1.560426e+002, 5.640351e+002
1.565247e+002, 5.630287e+002
1.570069e+002, 5.620353e+002
1.574890e+002, 5.610598e+002
1.579711e+002, 5.602785e+002
1.584532e+002, 5.596959e+002
1.589353e+002, 5.593846e+002
1.594174e+002, 5.594705e+002
1.598996e+002, 5.599619e+002
1.603817e+002, 5.606143e+002
1.608638e+002, 5.612894e+002
1.613459e+002, 5.622054e+002
1.618280e+002, 5.623520e+002
1.623102e+002, 5.608660e+002
1.627923e+002, 5.590774e+002
1.632744e+002, 5.579297e+002
1.637565e+002, 5.576736e+002
1.642386e+002, 5.578055e+002
1.647207e+002, 5.573019e+002
1.652029e+002, 5.553293e+002
1.656850e+002, 5.541037e+002
1.661671e+002, 5.541286e+002
1.666492e+002, 5.547057e+002
1.671313e+002, 5.552067e+002
1.676134e+002, 5.553595e+002
1.680956e+002, 5.553336e+002
1.685777e+002, 5.556256e+002
1.690598e+002, 5.567267e+002
1.695419e+002, 5.575967e+002
1.700240e+002, 5.581169e+002
1.705061e+002, 5.583749e+002
1.709883e+002, 5.584479e+002
1.714704e+002, 5.583490e+002
1.719525e+002, 5.581612e+002
1.724346e+002, 5.582535e+002
1.729167e+002, 5.586876e+002
1.733988e+002, 5.592618e+002
1.738810e+002, 5.599592e+002
1.743631e+002, 5.607582e+002
1.748452e+002, 5.615802e+002
1.753273e+002, 5.623342e+002
1.758094e+002, 5.631242e+002
1.762915e+002, 5.642368e+002
1.767737e+002, 5.659570e+002
1.772558e+002, 5.676630e+002
1.777379e+002, 5.689285e+002
1.782200e+002, 5.697845e+002
1.787021e+002, 5.706530e+002
1.791842e+002, 5.718702e+002
1.796664e+002, 5.732054e+002
1.801485e+002, 5.742021e+002
1.806306e+002, 5.745978e+002
1.811127e+002, 5.748643e+002
1.815948e+002, 5.755483e+002
1.820769e+002, 5.767224e+002
1.825591e+002, 5.778809e+002
1.830412e+002, 5.787980e+002
1.835233e+002, 5.795320e+002
1.840054e+002, 5.801578e+002
1.844875e+002, 5.807914e+002
1.849696e+002, 5.812068e+002
1.854518e+002, 5.810436e+002
1.859339e+002, 5.803879e+002
1.864160e+002, 5.788541e+002
1.868981e+002, 5.756035e+002
1.873802e+002, 5.717405e+002
1.878623e+002, 5.685947e+002
1.883445e+002, 5.669623e+002
1.888266e+002, 5.663237e+002
1.893087e+002, 5.649252e+002
1.897908e+002, 5.621120e+002
1.902729e+002, 5.593988e+002
1.907550e+002, 5.571134e+002
1.912372e+002, 5.551556e+002
1.917193e+002, 5.534213e+002
1.922014e+002, 5.518712e+002
1.926835e+002, 5.504725e+002
1.931656e+002, 5.490115e+002
1.936477e+002, 5.475447e+002
1.941299e+002, 5.459542e+002
1.946120e+002, 5.440692e+002
1.950941e+002, 5.420582e+002
1.955762e+002, 5.401807e+002
1.960583e+002, 5.385984e+002
1.965404e+002, 5.373090e+002
1.970226e+002, 5.363046e+002
1.975047e+002, 5.357826e+002
1.979868e+002, 5.353128e+002
1.984689e+002, 5.347670e+002
1.989510e+002, 5.341771e+002
1.994331e+002, 5.336611e+002
1.999153e+002, 5.333190e+002
2.003974e+002, 5.331386e+002
2.008795e+002, 5.327414e+002
2.013616e+002, 5.318616e+002
2.018437e+002, 5.310630e+002
2.023258e+002, 5.307970e+002
2.028080e+002, 5.308926e+002
2.032901e+002, 5.306774e+002
2.037722e+002, 5.295817e+002
2.042543e+002, 5.276722e+002
2.047364e+002, 5.261418e+002
2.052185e+002, 5.251372e+002
2.057007e+002, 5.243524e+002
2.061828e+002, 5.236595e+002
2.066649e+002, 5.230482e+002
2.071470e+002, 5.224789e+002
2.076291e+002, 5.218864e+002
2.081112e+002, 5.213303e+002
2.085934e+002, 5.209979e+002
2.090755e+002, 5.210877e+002
2.095576e+002, 5.212858e+002
2.100397e+002, 5.213990e+002
2.105218e+002, 5.214332e+002
2.110039e+002, 5.212326e+002
2.114861e+002, 5.205804e+002
2.119682e+002, 5.196196e+002
2.124503e+002, 5.186125e+002
2.129324e+002, 5.173550e+002
2.134145e+002, 5.162458e+002
2.138967e+002, 5.159500e+002
2.143788e+002, 5.166602e+002
2.148609e+002, 5.172581e+002
2.153430e+002, 5.167516e+002
2.158251e+002, 5.158073e+002
2.163072e+002, 5.152665e+002
2.167894e+002, 5.155435e+002
2.172715e+002, 5.162046e+002
2.177536e+002, 5.165246e+002
2.182357e+002, 5.164470e+002
2.187178e+002, 5.161599e+002
2.191999e+002, 5.155793e+002
2.196821e+002, 5.149034e+002
2.201642e+002, 5.143700e+002
2.206463e+002, 5.141028e+002
2.211284e+002, 5.140001e+002
2.216105e+002, 5.138329e+002
2.220926e+002, 5.135829e+002
2.225748e+002, 5.133144e+002
2.230569e+002, 5.130965e+002
2.235390e+002, 5.128677e+002
2.240211e+002, 5.124735e+002
2.245032e+002, 5.117752e+002
2.249853e+002, 5.110497e+002
2.254675e+002, 5.111472e+002
2.259496e+002, 5.128290e+002
2.264317e+002, 5.141372e+002
2.269138e+002, 5.144553e+002
2.273959e+002, 5.143098e+002
2.278780e+002, 5.143161e+002
2.283602e+002, 5.147899e+002
2.288423e+002, 5.154899e+002
2.293244e+002, 5.156143e+002
2.298065e+002, 5.145438e+002
2.302886e+002, 5.137045e+002
2.307707e+002, 5.131578e+002
2.312529e+002, 5.129520e+002
2.317350e+002, 5.131653e+002
2.322171e+002, 5.138375e+002
2.326992e+002, 5.148658e+002
2.331813e+002, 5.159356e+002
2.336634e+002, 5.173953e+002
2.341456e+002, 5.184434e+002
2.346277e+002, 5.188140e+002
2.351098e+002, 5.188231e+002
2.355919e+002, 5.188549e+002
2.360740e+002, 5.190876e+002
2.365561e+002, 5.193865e+002
2.370383e+002, 5.193489e+002
2.375204e+002, 5.186449e+002
2.380025e+002, 5.179788e+002
2.384846e+002, 5.170778e+002
2.389667e+002, 5.163417e+002
2.394488e+002, 5.164020e+002
2.399310e+002, 5.175450e+002
2.404131e+002, 5.192801e+002
2.408952e+002, 5.203488e+002
2.413773e+002, 5.199326e+002
2.418594e+002, 5.199942e+002
2.423415e+002, 5.210406e+002
2.428237e+002, 5.225626e+002
2.433058e+002, 5.238691e+002
2.437879e+002, 5.246910e+002
2.442700e+002, 5.253299e+002
2.447521e+002, 5.265051e+002
2.452342e+002, 5.287133e+002
2.457164e+002, 5.304169e+002
2.461985e+002, 5.310936e+002
2.466806e+002, 5.312182e+002
2.471627e+002, 5.314086e+002
2.476448e+002, 5.318612e+002
2.481269e+002, 5.324545e+002
2.486091e+002, 5.329854e+002
2.490912e+002, 5.334246e+002
2.495733e+002, 5.339088e+002
2.500554e+002, 5.345908e+002
2.505375e+002, 5.353060e+002
2.510196e+002, 5.356916e+002
2.515018e+002, 5.355770e+002
2.519839e+002, 5.354789e+002
2.524660e+002, 5.362743e+002
2.529481e+002, 5.379831e+002
2.534302e+002, 5.397231e+002
2.539123e+002, 5.412719e+002
2.543945e+002, 5.427277e+002
2.548766e+002, 5.442927e+002
2.553587e+002, 5.460573e+002
2.558408e+002, 5.477684e+002
2.563229e+002, 5.490118e+002
2.568051e+002, 5.498580e+002
2.572872e+002, 5.508049e+002
2.577693e+002, 5.520497e+002
2.582514e+002, 5.534637e+002
2.587335e+002, 5.548848e+002
2.592156e+002, 5.563108e+002
2.596978e+002, 5.576268e+002
2.601799e+002, 5.585760e+002
2.606620e+002, 5.592744e+002
2.611441e+002, 5.601110e+002
2.616262e+002, 5.617639e+002
2.621083e+002, 5.634491e+002
2.625905e+002, 5.637253e+002
2.630726e+002, 5.622098e+002
2.635547e+002, 5.603398e+002
2.640368e+002, 5.594004e+002
2.645189e+002, 5.589486e+002
2.650010e+002, 5.580839e+002
2.654832e+002, 5.563466e+002
2.659653e+002, 5.541070e+002
2.664474e+002, 5.519407e+002
2.669295e+002, 5.498994e+002
2.674116e+002, 5.477833e+002
2.678937e+002, 5.452268e+002
2.683759e+002, 5.425706e+002
2.688580e+002, 5.403265e+002
2.693401e+002, 5.388651e+002
2.698222e+002, 5.377127e+002
2.703043e+002, 5.361919e+002
2.707864e+002, 5.342604e+002
2.712686e+002, 5.321526e+002
2.717507e+002, 5.295380e+002
2.722328e+002, 5.269450e+002
2.727149e+002, 5.250491e+002
2.731970e+002, 5.241885e+002
2.736791e+002, 5.237235e+002
2.741613e+002, 5.228163e+002
2.746434e+002, 5.213823e+002
2.751255e+002, 5.198922e+002
2.756076e+002, 5.185231e+002
2.760897e+002, 5.171604e+002
2.765718e+002, 5.156703e+002
2.770540e+002, 5.140002e+002
2.775361e+002, 5.123368e+002
2.780182e+002, 5.109193e+002
2.785003e+002, 5.097932e+002
2.789824e+002, 5.086315e+002
2.794645e+002, 5.072506e+002
2.799467e+002, 5.058766e+002
2.804288e+002, 5.046570e+002
2.809109e+002, 5.036162e+002
2.813930e+002, 5.027166e+002
2.818751e+002, 5.019399e+002
2.823572e+002, 5.012941e+002
2.828394e+002, 5.007073e+002
2.833215e+002, 5.004032e+002
2.838036e+002, 4.999567e+002
2.842857e+002, 4.989518e+002
2.847678e+002, 4.974651e+002
2.852499e+002, 4.960724e+002
2.857321e+002, 4.953520e+002
2.862142e+002, 4.953206e+002
2.866963e+002, 4.952697e+002
2.871784e+002, 4.953050e+002
2.876605e+002, 4.951461e+002
2.881426e+002, 4.946698e+002
2.886248e+002, 4.938872e+002
2.891069e+002, 4.928569e+002
2.895890e+002, 4.914672e+002
2.900711e+002, 4.897685e+002
2.905532e+002, 4.885459e+002
2.910353e+002, 4.882281e+002
2.915175e+002, 4.878654e+002
2.919996e+002, 4.869265e+002
2.924817e+002, 4.856830e+002
2.929638e+002, 4.846693e+002
2.934459e+002, 4.842391e+002
2.939280e+002, 4.842840e+002
2.944102e+002, 4.843748e+002
2.948923e+002, 4.847740e+002
2.953744e+002, 4.847856e+002
2.958565e+002, 4.839335e+002
2.963386e+002, 4.827206e+002
2.968207e+002, 4.818057e+002
2.973029e+002, 4.815349e+002
2.977850e+002, 4.816760e+002
2.982671e+002, 4.816581e+002
2.987492e+002, 4.814179e+002
2.992313e+002, 4.811534e+002
2.997134e+002, 4.809010e+002
3.001956e+002, 4.806601e+002
3.006777e+002, 4.804235e+002
3.011598e+002, 4.801873e+002
3.016419e+002, 4.799751e+002
3.021240e+002, 4.797996e+002
3.026061e+002, 4.795957e+002
3.030883e+002, 4.796152e+002
3.035704e+002, 4.802935e+002
3.040525e+002, 4.809179e+002
3.045346e+002, 4.808523e+002
3.050167e+002, 4.800332e+002
3.054988e+002, 4.790965e+002
3.059810e+002, 4.789496e+002
3.064631e+002, 4.798747e+002
3.069452e+002, 4.802601e+002
3.074273e+002, 4.793350e+002
3.079094e+002, 4.783703e+002
3.083915e+002, 4.778972e+002
3.088737e+002, 4.779410e+002
3.093558e+002, 4.782851e+002
3.098379e+002, 4.788129e+002
3.103200e+002, 4.795421e+002
3.108021e+002, 4.801012e+002
3.112842e+002, 4.804695e+002
3.117664e+002, 4.806623e+002
3.122485e+002, 4.806888e+002
3.127306e+002, 4.805462e+002
3.132127e+002, 4.801861e+002
3.136948e+002, 4.794668e+002
3.141769e+002, 4.785175e+002
3.146591e+002, 4.781956e+002
3.151412e+002, 4.792681e+002
3.156233e+002, 4.799016e+002
3.161054e+002, 4.791750e+002
3.165875e+002, 4.778590e+002
3.170696e+002, 4.770659e+002
3.175518e+002, 4.774110e+002
3.180339e+002, 4.783286e+002
3.185160e+002, 4.782761e+002
3.189981e+002, 4.765367e+002
3.194802e+002, 4.753140e+002
3.199623e+002, 4.751075e+002
3.204445e+002, 4.755253e+002
3.209266e+002, 4.764348e+002
3.214087e+002, 4.777845e+002
3.218908e+002, 4.791219e+002
3.223729e+002, 4.796869e+002
3.228550e+002, 4.792423e+002
3.233372e+002, 4.788675e+002
3.238193e+002, 4.789428e+002
3.243014e+002, 4.789467e+002
3.247835e+002, 4.784048e+002
3.252656e+002, 4.773506e+002
3.257477e+002, 4.763687e+002
3.262299e+002, 4.761846e+002
3.267120e+002, 4.769037e+002
3.271941e+002, 4.772496e+002
3.276762e+002, 4.767271e+002
3.281583e+002, 4.762380e+002
3.286404e+002, 4.761989e+002
3.291226e+002, 4.765204e+002
3.296047e+002, 4.768955e+002
3.300868e+002, 4.771318e+002
3.305689e+002, 4.772370e+002
3.310510e+002, 4.772039e+002
3.315331e+002, 4.765894e+002
3.320153e+002, 4.765521e+002
3.324974e+002, 4.780775e+002
3.329795e+002, 4.802355e+002
3.334616e+002, 4.816647e+002
3.339437e+002, 4.816632e+002
3.344258e+002, 4.807042e+002
3.349080e+002, 4.797872e+002
3.353901e+002, 4.789021e+002
3.358722e+002, 4.781099e+002
3.363543e+002, 4.774365e+002
3.368365e+002, 4.768616e+002
3.373186e+002, 4.764168e+002
3.378007e+002, 4.761222e+002
3.382828e+002, 4.758256e+002
3.387649e+002, 4.751888e+002
3.392470e+002, 4.740986e+002
3.397292e+002, 4.735345e+002
3.402113e+002, 4.740331e+002
3.406934e+002, 4.748746e+002
3.411755e+002, 4.757980e+002
3.416576e+002, 4.767157e+002
3.421397e+002, 4.773276e+002
3.426219e+002, 4.771100e+002
3.431040e+002, 4.761779e+002
3.435861e+002, 4.758772e+002
3.440682e+002, 4.767163e+002
3.445503e+002, 4.776134e+002
3.450324e+002, 4.779492e+002
3.455146e+002, 4.778421e+002
3.459967e+002, 4.775879e+002
3.464788e+002, 4.772586e+002
3.469609e+002, 4.769124e+002
3.474430e+002, 4.767296e+002
3.479251e+002, 4.767935e+002
3.484073e+002, 4.767935e+002
3.488894e+002, 4.764167e+002
3.493715e+002, 4.759448e+002
3.498536e+002, 4.757458e+002
3.503357e+002, 4.760006e+002
3.508178e+002, 4.764079e+002
3.513000e+002, 4.765657e+002
3.517821e+002, 4.764586e+002
3.522642e+002, 4.765351e+002
3.527463e+002, 4.773099e+002
3.532284e+002, 4.780559e+002
3.537105e+002, 4.779022e+002
3.541927e+002, 4.767142e+002
3.546748e+002, 4.755371e+002
3.551569e+002, 4.750277e+002
3.556390e+002, 4.751177e+002
3.561211e+002, 4.756036e+002
3.566032e+002, 4.767623e+002
3.570854e+002, 4.777661e+002
3.575675e+002, 4.777214e+002
3.580496e+002, 4.768190e+002
3.585317e+002, 4.759120e+002
3.590138e+002, 4.752462e+002
3.594959e+002, 4.748013e+002
3.599781e+002, 4.746128e+002
3.604602e+002, 4.747252e+002
3.609423e+002, 4.748047e+002
3.614244e+002, 4.745348e+002
3.619065e+002, 4.740638e+002
3.623886e+002, 4.737646e+002
3.628708e+002, 4.737386e+002
3.633529e+002, 4.738425e+002
3.638350e+002, 4.740300e+002
3.643171e+002, 4.742770e+002
3.647992e+002, 4.744323e+002
3.652813e+002, 4.744376e+002
3.657635e+002, 4.742920e+002
3.662456e+002, 4.739741e+002
3.667277e+002, 4.733962e+002
3.672098e+002, 4.729229e+002
3.676919e+002, 4.729170e+002
3.681740e+002, 4.730786e+002
3.686562e+002, 4.727718e+002
3.691383e+002, 4.717834e+002
3.696204e+002, 4.705817e+002
3.701025e+002, 4.696691e+002
3.705846e+002, 4.690421e+002
3.710667e+002, 4.687541e+002
3.715489e+002, 4.692649e+002
3.720310e+002, 4.698250e+002
3.725131e+002, 4.695771e+002
3.729952e+002, 4.685522e+002
3.734773e+002, 4.676724e+002
3.739594e+002, 4.676895e+002
3.744416e+002, 4.685009e+002
3.749237e+002, 4.688639e+002
3.754058e+002, 4.685041e+002
3.758879e+002, 4.680490e+002
3.763700e+002, 4.677813e+002
3.768521e+002, 4.675995e+002
3.773343e+002, 4.672255e+002
3.778164e+002, 4.665029e+002
3.782985e+002, 4.656630e+002
3.787806e+002, 4.652559e+002
3.792627e+002, 4.654962e+002
3.797448e+002, 4.658144e+002
3.802270e+002, 4.665884e+002
3.807091e+002, 4.671904e+002
3.811912e+002, 4.667915e+002
3.816733e+002, 4.653326e+002
3.821554e+002, 4.637499e+002
3.826375e+002, 4.631557e+002
3.831197e+002, 4.638964e+002
3.836018e+002, 4.638444e+002
3.840839e+002, 4.622450e+002
3.845660e+002, 4.607329e+002
3.850481e+002, 4.600945e+002
3.855302e+002, 4.601631e+002
3.860124e+002, 4.603678e+002
3.864945e+002, 4.603242e+002
3.869766e+002, 4.601329e+002
3.874587e+002, 4.603359e+002
3.879408e+002, 4.614613e+002
3.884229e+002, 4.623643e+002
3.889051e+002, 4.626952e+002
3.893872e+002, 4.628625e+002
3.898693e+002, 4.633987e+002
3.903514e+002, 4.644462e+002
3.908335e+002, 4.655613e+002
3.913156e+002, 4.660238e+002
3.917978e+002, 4.656590e+002
3.922799e+002, 4.651041e+002
3.927620e+002, 4.643193e+002
3.932441e+002, 4.634012e+002
3.937262e+002, 4.621094e+002
3.942083e+002, 4.606555e+002
3.946905e+002, 4.596865e+002
3.951726e+002, 4.598380e+002
3.956547e+002, 4.609826e+002
3.961368e+002, 4.618463e+002
3.966189e+002, 4.626468e+002
3.971010e+002, 4.627721e+002
3.975832e+002, 4.613894e+002
3.980653e+002, 4.595255e+002
3.985474e+002, 4.586404e+002
3.990295e+002, 4.594243e+002
3.995116e+002, 4.608335e+002
3.999937e+002, 4.610471e+002
4.004759e+002, 4.597687e+002
4.009580e+002, 4.588430e+002
4.014401e+002, 4.590573e+002
4.019222e+002, 4.595324e+002
4.024043e+002, 4.596998e+002
4.028864e+002, 4.595204e+002
4.033686e+002, 4.592286e+002
4.038507e+002, 4.589498e+002
4.043328e+002, 4.586911e+002
4.048149e+002, 4.584931e+002
4.052970e+002, 4.583828e+002
4.057791e+002, 4.582816e+002
4.062613e+002, 4.581488e+002
4.067434e+002, 4.579837e+002
4.072255e+002, 4.577823e+002
4.077076e+002, 4.575889e+002
4.081897e+002, 4.573138e+002
4.086718e+002, 4.566670e+002
4.091540e+002, 4.556746e+002
4.096361e+002, 4.551720e+002
4.101182e+002, 4.557196e+002
4.106003e+002, 4.568027e+002
4.110824e+002, 4.575487e+002
4.115645e+002, 4.579675e+002
4.120467e+002, 4.580666e+002
4.125288e+002, 4.575354e+002
4.130109e+002, 4.567612e+002
4.134930e+002, 4.565789e+002
4.139751e+002, 4.572179e+002
4.144572e+002, 4.578204e+002
4.149394e+002, 4.572852e+002
4.154215e+002, 4.555595e+002
4.159036e+002, 4.548468e+002
4.163857e+002, 4.561430e+002
4.168678e+002, 4.576942e+002
4.173499e+002, 4.584919e+002
4.178321e+002, 4.585695e+002
4.183142e+002, 4.582198e+002
4.187963e+002, 4.575506e+002
4.192784e+002, 4.566698e+002
4.197605e+002, 4.559466e+002
4.202426e+002, 4.553259e+002
4.207248e+002, 4.549302e+002
4.212069e+002, 4.549660e+002
4.216890e+002, 4.551373e+002
4.221711e+002, 4.551884e+002
4.226532e+002, 4.550443e+002
4.231353e+002, 4.546880e+002
4.236175e+002, 4.540452e+002
4.240996e+002, 4.529821e+002
4.245817e+002, 4.523450e+002
4.250638e+002, 4.522679e+002
4.255459e+002, 4.524184e+002
4.260280e+002, 4.528164e+002
4.265102e+002, 4.533300e+002
4.269923e+002, 4.537305e+002
4.274744e+002, 4.538736e+002
4.279565e+002, 4.538479e+002
4.284386e+002, 4.539813e+002
4.289207e+002, 4.545562e+002
4.294029e+002, 4.547559e+002
4.298850e+002, 4.542644e+002
4.303671e+002, 4.535556e+002
4.308492e+002, 4.528607e+002
4.313313e+002, 4.522814e+002
4.318134e+002, 4.520376e+002
4.322956e+002, 4.526003e+002
4.327777e+002, 4.540046e+002
4.332598e+002, 4.547449e+002
4.337419e+002, 4.545397e+002
4.342241e+002, 4.539415e+002
4.347062e+002, 4.529512e+002
4.351883e+002, 4.518304e+002
4.356704e+002, 4.510858e+002
4.361525e+002, 4.510110e+002
4.366346e+002, 4.513178e+002
4.371168e+002, 4.515359e+002
4.375989e+002, 4.516377e+002
4.380810e+002, 4.519670e+002
4.385631e+002, 4.529051e+002
4.390452e+002, 4.539211e+002
4.395273e+002, 4.543998e+002
4.400095e+002, 4.542879e+002
4.404916e+002, 4.540548e+002
4.409737e+002, 4.538802e+002
4.414558e+002, 4.537719e+002
4.419379e+002, 4.537532e+002
4.424200e+002, 4.538314e+002
4.429022e+002, 4.539690e+002
4.433843e+002, 4.541306e+002
4.438664e+002, 4.543288e+002
4.443485e+002, 4.546161e+002
4.448306e+002, 4.551937e+002
4.453127e+002, 4.556712e+002
4.457949e+002, 4.556656e+002
4.462770e+002, 4.553766e+002
4.467591e+002, 4.553393e+002
4.472412e+002, 4.557834e+002
4.477233e+002, 4.565464e+002
4.482054e+002, 4.573686e+002
4.486876e+002, 4.584829e+002
4.491697e+002, 4.591088e+002
4.496518e+002, 4.587647e+002
4.501339e+002, 4.582506e+002
4.506160e+002, 4.582231e+002
4.510981e+002, 4.586639e+002
4.515803e+002, 4.591058e+002
4.520624e+002, 4.591390e+002
4.525445e+002, 4.588179e+002
4.530266e+002, 4.588607e+002
4.535087e+002, 4.595228e+002
4.539908e+002, 4.602812e+002
4.544730e+002, 4.612323e+002
4.549551e+002, 4.621634e+002
4.554372e+002, 4.627404e+002
4.559193e+002, 4.628897e+002
4.564014e+002, 4.629969e+002
4.568835e+002, 4.636212e+002
4.573657e+002, 4.648504e+002
4.578478e+002, 4.661841e+002
4.583299e+002, 4.678876e+002
4.588120e+002, 4.694129e+002
4.592941e+002, 4.704474e+002
4.597762e+002, 4.711176e+002
4.602584e+002, 4.718017e+002
4.607405e+002, 4.728695e+002
4.612226e+002, 4.738892e+002
4.617047e+002, 4.737471e+002
4.621868e+002, 4.721389e+002
4.626689e+002, 4.708499e+002
4.631511e+002, 4.708360e+002
4.636332e+002, 4.712122e+002
4.641153e+002, 4.712425e+002
4.645974e+002, 4.708840e+002
4.650795e+002, 4.699820e+002
4.655616e+002, 4.679480e+002
4.660438e+002, 4.653790e+002
4.665259e+002, 4.637051e+002
4.670080e+002, 4.632079e+002
4.674901e+002, 4.629416e+002
4.679722e+002, 4.621578e+002
4.684543e+002, 4.609877e+002
4.689365e+002, 4.601016e+002
4.694186e+002, 4.596278e+002
4.699007e+002, 4.593403e+002
4.703828e+002, 4.592455e+002
4.708649e+002, 4.592458e+002
4.713470e+002, 4.592432e+002
4.718292e+002, 4.592380e+002
4.723113e+002, 4.588735e+002
4.727934e+002, 4.574808e+002
4.732755e+002, 4.544169e+002
4.737576e+002, 4.522338e+002
4.742397e+002, 4.514135e+002
4.747219e+002, 4.510089e+002
4.752040e+002, 4.505518e+002
4.756861e+002, 4.500181e+002
4.761682e+002, 4.495822e+002
4.766503e+002, 4.493910e+002
4.771324e+002, 4.492812e+002
4.776146e+002, 4.485677e+002
4.780967e+002, 4.464189e+002
4.785788e+002, 4.450179e+002
4.790609e+002, 4.450736e+002
4.795430e+002, 4.455241e+002
4.800251e+002, 4.456029e+002
4.805073e+002, 4.451858e+002
4.809894e+002, 4.445455e+002
4.814715e+002, 4.439258e+002
4.819536e+002, 4.433202e+002
4.824357e+002, 4.425786e+002
4.829178e+002, 4.415262e+002
4.834000e+002, 4.406459e+002
4.838821e+002, 4.402748e+002
4.843642e+002, 4.401380e+002
4.848463e+002, 4.398180e+002
4.853284e+002, 4.391048e+002
4.858105e+002, 4.385193e+002
4.862927e+002, 4.388271e+002
4.867748e+002, 4.398243e+002
4.872569e+002, 4.401960e+002
4.877390e+002, 4.395055e+002
4.882211e+002, 4.384455e+002
4.887032e+002, 4.375427e+002
4.891854e+002, 4.368123e+002
4.896675e+002, 4.366312e+002
4.901496e+002, 4.376776e+002
4.906317e+002, 4.388076e+002
4.911138e+002, 4.390343e+002
4.915959e+002, 4.385210e+002
4.920781e+002, 4.379283e+002
4.925602e+002, 4.375322e+002
4.930423e+002, 4.373504e+002
4.935244e+002, 4.374660e+002
4.940065e+002, 4.383612e+002
4.944886e+002, 4.386010e+002
4.949708e+002, 4.375376e+002
4.954529e+002, 4.362531e+002
4.959350e+002, 4.355163e+002
4.964171e+002, 4.353436e+002
4.968992e+002, 4.353455e+002
4.973813e+002, 4.352216e+002
4.978635e+002, 4.350167e+002
4.983456e+002, 4.350363e+002
4.988277e+002, 4.353929e+002
4.993098e+002, 4.358104e+002
4.997919e+002, 4.366206e+002
5.002740e+002, 4.372340e+002
5.007562e+002, 4.369252e+002
5.012383e+002, 4.356681e+002
5.017204e+002, 4.343729e+002
5.022025e+002, 4.341082e+002
5.026846e+002, 4.347586e+002
5.031667e+002, 4.348734e+002
5.036489e+002, 4.341685e+002
5.041310e+002, 4.334512e+002
5.046131e+002, 4.331551e+002
5.050952e+002, 4.331266e+002
5.055773e+002, 4.331688e+002
5.060594e+002, 4.332547e+002
5.065416e+002, 4.333678e+002
5.070237e+002, 4.334278e+002
5.075058e+002, 4.334941e+002
5.079879e+002, 4.337578e+002
5.084700e+002, 4.342501e+002
5.089521e+002, 4.350065e+002
5.094343e+002, 4.363134e+002
5.099164e+002, 4.381457e+002
5.103985e+002, 4.391143e+002
5.108806e+002, 4.386494e+002
5.113627e+002, 4.377729e+002
5.118448e+002, 4.367816e+002
5.123270e+002, 4.358414e+002
5.128091e+002, 4.352862e+002
5.132912e+002, 4.352741e+002
5.137733e+002, 4.355395e+002
5.142554e+002, 4.355872e+002
5.147375e+002, 4.352655e+002
5.152197e+002, 4.350893e+002
5.157018e+002, 4.348189e+002
5.161839e+002, 4.348937e+002
5.166660e+002, 4.358182e+002
5.171481e+002, 4.372735e+002
5.176302e+002, 4.384791e+002
5.181124e+002, 4.389349e+002
5.185945e+002, 4.389415e+002
5.190766e+002, 4.393950e+002
5.195587e+002, 4.406279e+002
5.200408e+002, 4.411876e+002
5.205229e+002, 4.400475e+002
5.210051e+002, 4.386310e+002
5.214872e+002, 4.377775e+002
5.219693e+002, 4.375100e+002
5.224514e+002, 4.375272e+002
5.229335e+002, 4.379859e+002
5.234156e+002, 4.385056e+002
5.238978e+002, 4.381573e+002
5.243799e+002, 4.368748e+002
5.248620e+002, 4.359826e+002
5.253441e+002, 4.363711e+002
5.258262e+002, 4.373823e+002
5.263083e+002, 4.376953e+002
5.267905e+002, 4.373364e+002
5.272726e+002, 4.363686e+002
5.277547e+002, 4.341194e+002
5.282368e+002, 4.316810e+002
5.287189e+002, 4.303267e+002
5.292010e+002, 4.301161e+002
5.296832e+002, 4.303150e+002
5.301653e+002, 4.304236e+002
5.306474e+002, 4.304361e+002
5.311295e+002, 4.303282e+002
5.316116e+002, 4.301779e+002
5.320938e+002, 4.297740e+002
5.325759e+002, 4.285986e+002
5.330580e+002, 4.274590e+002
5.335401e+002, 4.272453e+002
5.340222e+002, 4.279650e+002
5.345043e+002, 4.287466e+002
5.349865e+002, 4.286760e+002
5.354686e+002, 4.278587e+002
5.359507e+002, 4.276184e+002
5.364328e+002, 4.283942e+002
5.369149e+002, 4.289194e+002
5.373970e+002, 4.284149e+002
5.378792e+002, 4.276039e+002
5.383613e+002, 4.273513e+002
5.388434e+002, 4.278850e+002
5.393255e+002, 4.283074e+002
5.398076e+002, 4.277783e+002
5.402897e+002, 4.266411e+002
5.407719e+002, 4.257188e+002
5.412540e+002, 4.250831e+002
5.417361e+002, 4.249016e+002
5.422182e+002, 4.255241e+002
5.427003e+002, 4.267212e+002
5.431824e+002, 4.273437e+002
5.436646e+002, 4.269184e+002
5.441467e+002, 4.265463e+002
5.446288e+002, 4.266431e+002
5.451109e+002, 4.269901e+002
5.455930e+002, 4.273399e+002
5.460751e+002, 4.276225e+002
5.465573e+002, 4.277964e+002
5.470394e+002, 4.277621e+002
5.475215e+002, 4.274994e+002
5.480036e+002, 4.277336e+002
5.484857e+002, 4.293210e+002
5.489678e+002, 4.304262e+002
5.494500e+002, 4.304077e+002
5.499321e+002, 4.298914e+002
5.504142e+002, 4.295198e+002
5.508963e+002, 4.294727e+002
5.513784e+002, 4.295980e+002
5.518605e+002, 4.298155e+002
5.523427e+002, 4.301054e+002
5.528248e+002, 4.301854e+002
5.533069e+002, 4.300473e+002
5.537890e+002, 4.296950e+002
5.542711e+002, 4.287548e+002
5.547532e+002, 4.277121e+002
5.552354e+002, 4.273619e+002
5.557175e+002, 4.280353e+002
5.561996e+002, 4.288675e+002
5.566817e+002, 4.293455e+002
5.571638e+002, 4.295840e+002
5.576459e+002, 4.298314e+002
5.581281e+002, 4.301339e+002
5.586102e+002, 4.303863e+002
5.590923e+002, 4.305536e+002
5.595744e+002, 4.306172e+002
5.600565e+002, 4.301832e+002
5.605386e+002, 4.285988e+002
5.610208e+002, 4.274126e+002
5.615029e+002, 4.272838e+002
5.619850e+002, 4.275845e+002
5.624671e+002, 4.275761e+002
5.629492e+002, 4.271150e+002
5.634313e+002, 4.265761e+002
5.639135e+002, 4.263773e+002
5.643956e+002, 4.265084e+002
5.648777e+002, 4.264162e+002
5.653598e+002, 4.257574e+002
5.658419e+002, 4.254345e+002
5.663240e+002, 4.259450e+002
5.668062e+002, 4.267735e+002
5.672883e+002, 4.274616e+002
5.677704e+002, 4.279150e+002
5.682525e+002, 4.280422e+002
5.687346e+002, 4.275777e+002
5.692167e+002, 4.267439e+002
5.696989e+002, 4.261673e+002
5.701810e+002, 4.259198e+002
5.706631e+002, 4.257742e+002
5.711452e+002, 4.256151e+002
5.716273e+002, 4.254430e+002
5.721094e+002, 4.252554e+002
5.725916e+002, 4.249796e+002
5.730737e+002, 4.248193e+002
5.735558e+002, 4.249567e+002
5.740379e+002, 4.251614e+002
5.745200e+002, 4.250734e+002
5.750021e+002, 4.247284e+002
5.754843e+002, 4.245826e+002
5.759664e+002, 4.250247e+002
5.764485e+002, 4.259545e+002
5.769306e+002, 4.267701e+002
5.774127e+002, 4.273760e+002
5.778948e+002, 4.280060e+002
5.783770e+002, 4.291632e+002
5.788591e+002, 4.299993e+002
5.793412e+002, 4.293789e+002
5.798233e+002, 4.275481e+002
5.803054e+002, 4.263061e+002
5.807875e+002, 4.273859e+002
5.812697e+002, 4.298224e+002
5.817518e+002, 4.311971e+002
5.822339e+002, 4.314375e+002
5.827161e+002, 4.312858e+002
5.831982e+002, 4.309077e+002
5.836803e+002, 4.303942e+002
5.841624e+002, 4.298907e+002
5.846445e+002, 4.294044e+002
5.851266e+002, 4.288652e+002
5.856088e+002, 4.280104e+002
5.860909e+002, 4.272900e+002
5.865730e+002, 4.271882e+002
5.870551e+002, 4.275986e+002
5.875372e+002, 4.280512e+002
5.880193e+002, 4.282909e+002
5.885015e+002, 4.285082e+002
5.889836e+002, 4.291654e+002
5.894657e+002, 4.306791e+002
5.899478e+002, 4.317253e+002
5.904299e+002, 4.318716e+002
5.909120e+002, 4.320282e+002
5.913942e+002, 4.325851e+002
5.918763e+002, 4.334966e+002
5.923584e+002, 4.345844e+002
5.928405e+002, 4.357630e+002
5.933226e+002, 4.370855e+002
5.938047e+002, 4.388547e+002
5.942869e+002, 4.410539e+002
5.947690e+002, 4.424268e+002
5.952511e+002, 4.423247e+002
5.957332e+002, 4.421071e+002
5.962153e+002, 4.429945e+002
5.966974e+002, 4.447469e+002
5.971796e+002, 4.466601e+002
5.976617e+002, 4.486708e+002
5.981438e+002, 4.507813e+002
5.986259e+002, 4.531984e+002
5.991080e+002, 4.556618e+002
5.995901e+002, 4.577591e+002
6.000723e+002, 4.593804e+002
6.005544e+002, 4.605409e+002
6.010365e+002, 4.611833e+002
6.015186e+002, 4.612939e+002
6.020007e+002, 4.617332e+002
6.024828e+002, 4.632785e+002
6.029650e+002, 4.642059e+002
6.034471e+002, 4.637358e+002
6.039292e+002, 4.628126e+002
6.044113e+002, 4.624203e+002
6.048934e+002, 4.627105e+002
6.053755e+002, 4.630627e+002
6.058577e+002, 4.628485e+002
6.063398e+002, 4.622540e+002
6.068219e+002, 4.620958e+002
6.073040e+002, 4.625187e+002
6.077861e+002, 4.625420e+002
6.082682e+002, 4.616634e+002
6.087504e+002, 4.601459e+002
6.092325e+002, 4.583078e+002
6.097146e+002, 4.559644e+002
6.101967e+002, 4.542597e+002
6.106788e+002, 4.541591e+002
6.111609e+002, 4.543029e+002
6.116431e+002, 4.534722e+002
6.121252e+002, 4.517754e+002
6.126073e+002, 4.498918e+002
6.130894e+002, 4.481749e+002
6.135715e+002, 4.464980e+002
6.140536e+002, 4.445327e+002
6.145358e+002, 4.420127e+002
6.150179e+002, 4.398966e+002
6.155000e+002, 4.384443e+002
6.159821e+002, 4.371469e+002
6.164642e+002, 4.357466e+002
6.169464e+002, 4.343557e+002
6.174285e+002, 4.332740e+002
6.179106e+002, 4.327016e+002
6.183927e+002, 4.321238e+002
6.188748e+002, 4.307020e+002
6.193569e+002, 4.286729e+002
6.198391e+002, 4.273876e+002
6.203212e+002, 4.272042e+002
6.208033e+002, 4.272029e+002
6.212854e+002, 4.268156e+002
6.217675e+002, 4.259868e+002
6.222496e+002, 4.245848e+002
6.227318e+002, 4.216171e+002
6.232139e+002, 4.193731e+002
6.236960e+002, 4.188864e+002
6.241781e+002, 4.191976e+002
6.246602e+002, 4.194017e+002
6.251423e+002, 4.193329e+002
6.256245e+002, 4.191970e+002
6.261066e+002, 4.191930e+002
6.265887e+002, 4.192114e+002
6.270708e+002, 4.186958e+002
6.275529e+002, 4.173668e+002
6.280350e+002, 4.161895e+002
6.285172e+002, 4.152285e+002
6.289993e+002, 4.145869e+002
6.294814e+002, 4.144348e+002
6.299635e+002, 4.147102e+002
6.304456e+002, 4.150984e+002
6.309277e+002, 4.156478e+002
6.314099e+002, 4.160893e+002
6.318920e+002, 4.161486e+002
6.323741e+002, 4.158481e+002
6.328562e+002, 4.151836e+002
6.333383e+002, 4.141035e+002
6.338204e+002, 4.129870e+002
6.343026e+002, 4.122990e+002
6.347847e+002, 4.120912e+002
6.352668e+002, 4.118342e+002
6.357489e+002, 4.114606e+002
6.362310e+002, 4.111191e+002
6.367131e+002, 4.108819e+002
6.371953e+002, 4.106812e+002
6.376774e+002, 4.103608e+002
6.381595e+002, 4.099275e+002
6.386416e+002, 4.096738e+002
6.391237e+002, 4.101348e+002
6.396058e+002, 4.110352e+002
6.400880e+002, 4.107125e+002
6.405701e+002, 4.087100e+002
6.410522e+002, 4.073573e+002
6.415343e+002, 4.081016e+002
6.420164e+002, 4.095343e+002
6.424985e+002, 4.097311e+002
6.429807e+002, 4.086213e+002
6.434628e+002, 4.074118e+002
6.439449e+002, 4.059487e+002
6.444270e+002, 4.049322e+002
6.449091e+002, 4.052464e+002
6.453912e+002, 4.064720e+002
6.458734e+002, 4.075511e+002
6.463555e+002, 4.080496e+002
6.468376e+002, 4.080800e+002
6.473197e+002, 4.077764e+002
6.478018e+002, 4.070968e+002
6.482839e+002, 4.062955e+002
6.487661e+002, 4.050057e+002
6.492482e+002, 4.040494e+002
6.497303e+002, 4.039013e+002
6.502124e+002, 4.041049e+002
6.506945e+002, 4.040820e+002
6.511766e+002, 4.036993e+002
6.516588e+002, 4.032837e+002
6.521409e+002, 4.030084e+002
6.526230e+002, 4.028972e+002
6.531051e+002, 4.031461e+002
6.535872e+002, 4.037447e+002
6.540693e+002, 4.039854e+002
6.545515e+002, 4.033400e+002
6.550336e+002, 4.023823e+002
6.555157e+002, 4.023700e+002
6.559978e+002, 4.039874e+002
6.564799e+002, 4.049487e+002
6.569620e+002, 4.050182e+002
6.574442e+002, 4.046490e+002
6.579263e+002, 4.037058e+002
6.584084e+002, 4.025893e+002
6.588905e+002, 4.019965e+002
6.593726e+002, 4.022107e+002
6.598547e+002, 4.026738e+002
6.603369e+002, 4.026958e+002
6.608190e+002, 4.022949e+002
6.613011e+002, 4.016840e+002
6.617832e+002, 4.007682e+002
6.622653e+002, 3.999354e+002
6.627474e+002, 3.994095e+002
6.632296e+002, 3.991071e+002
6.637117e+002, 3.988763e+002
6.641938e+002, 3.987592e+002
6.646759e+002, 3.985601e+002
6.651580e+002, 3.979996e+002
6.656401e+002, 3.974961e+002
6.661223e+002, 3.977055e+002
6.666044e+002, 3.983481e+002
6.670865e+002, 3.983752e+002
6.675686e+002, 3.972168e+002
6.680507e+002, 3.956200e+002
6.685328e+002, 3.950930e+002
6.690150e+002, 3.959740e+002
6.694971e+002, 3.964607e+002
6.699792e+002, 3.962379e+002
6.704613e+002, 3.959765e+002
6.709434e+002, 3.960578e+002
6.714255e+002, 3.962587e+002
6.719077e+002, 3.962477e+002
6.723898e+002, 3.959509e+002
6.728719e+002, 3.954765e+002
6.733540e+002, 3.944398e+002
6.738361e+002, 3.934797e+002
6.743182e+002, 3.939705e+002
6.748004e+002, 3.957850e+002
6.752825e+002, 3.971021e+002
6.757646e+002, 3.968232e+002
6.762467e+002, 3.956085e+002
6.767288e+002, 3.949666e+002
6.772109e+002, 3.951201e+002
6.776931e+002, 3.953351e+002
6.781752e+002, 3.955069e+002
6.786573e+002, 3.958414e+002
6.791394e+002, 3.967383e+002
6.796215e+002, 3.977577e+002
6.801036e+002, 3.981284e+002
6.805858e+002, 3.975608e+002
6.810679e+002, 3.967254e+002
6.815500e+002, 3.960670e+002
6.820321e+002, 3.956609e+002
6.825142e+002, 3.958289e+002
6.829963e+002, 3.966180e+002
6.834785e+002, 3.975073e+002
6.839606e+002, 3.983062e+002
6.844427e+002, 3.989142e+002
6.849248e+002, 3.990930e+002
6.854069e+002, 3.987344e+002
6.858890e+002, 3.981768e+002
6.863712e+002, 3.970551e+002
6.868533e+002, 3.961142e+002
6.873354e+002, 3.959062e+002
6.878175e+002, 3.961323e+002
6.882996e+002, 3.963205e+002
6.887817e+002, 3.962900e+002
6.892639e+002, 3.959018e+002
6.897460e+002, 3.946768e+002
6.902281e+002, 3.928240e+002
6.907102e+002, 3.919669e+002
6.911923e+002, 3.924151e+002
6.916744e+002, 3.927469e+002
6.921566e+002, 3.921229e+002
6.926387e+002, 3.910468e+002
6.931208e+002, 3.904955e+002
6.936029e+002, 3.905024e+002
6.940850e+002, 3.907521e+002
6.945671e+002, 3.912125e+002
6.950493e+002, 3.918752e+002
6.955314e+002, 3.930436e+002
6.960135e+002, 3.943382e+002
6.964956e+002, 3.950589e+002
6.969777e+002, 3.949561e+002
6.974598e+002, 3.943458e+002
6.979420e+002, 3.934218e+002
6.984241e+002, 3.922190e+002
6.989062e+002, 3.917624e+002
6.993883e+002, 3.923056e+002
6.998704e+002, 3.928881e+002
7.003525e+002, 3.931346e+002
7.008347e+002, 3.931889e+002
7.013168e+002, 3.932978e+002
7.017989e+002, 3.934877e+002
7.022810e+002, 3.934266e+002
7.027631e+002, 3.926511e+002
7.032452e+002, 3.919471e+002
7.037274e+002, 3.920800e+002
7.042095e+002, 3.926662e+002
7.046916e+002, 3.928701e+002
7.051737e+002, 3.924415e+002
7.056558e+002, 3.918236e+002
7.061379e+002, 3.914549e+002
7.066201e+002, 3.913487e+002
7.071022e+002, 3.919780e+002
7.075843e+002, 3.941020e+002
7.080664e+002, 3.951451e+002
7.085485e+002, 3.931408e+002
7.090306e+002, 3.905474e+002
7.095128e+002, 3.898705e+002
7.099949e+002, 3.910047e+002
7.104770e+002, 3.916402e+002
7.109591e+002, 3.905714e+002
7.114412e+002, 3.892097e+002
7.119233e+002, 3.884744e+002
7.124055e+002, 3.882222e+002
7.128876e+002, 3.882221e+002
7.133697e+002, 3.883917e+002
7.138518e+002, 3.886188e+002
7.143339e+002, 3.887963e+002
7.148160e+002, 3.889355e+002
7.152982e+002, 3.891392e+002
7.157803e+002, 3.895808e+002
7.162624e+002, 3.896789e+002
7.167445e+002, 3.888758e+002
7.172266e+002, 3.880699e+002
7.177087e+002, 3.879186e+002
7.181909e+002, 3.883140e+002
7.186730e+002, 3.887460e+002
7.191551e+002, 3.890756e+002
7.196372e+002, 3.893628e+002
7.201193e+002, 3.898040e+002
7.206014e+002, 3.901688e+002
7.210836e+002, 3.898943e+002
7.215657e+002, 3.889890e+002
7.220478e+002, 3.882362e+002
7.225299e+002, 3.882671e+002
7.230120e+002, 3.888099e+002
7.234941e+002, 3.888700e+002
7.239763e+002, 3.882588e+002
7.244584e+002, 3.876813e+002
7.249405e+002, 3.869763e+002
7.254226e+002, 3.865781e+002
7.259047e+002, 3.868732e+002
7.263868e+002, 3.876115e+002
7.268690e+002, 3.883088e+002
7.273511e+002, 3.889388e+002
7.278332e+002, 3.892630e+002
7.283153e+002, 3.889386e+002
7.287974e+002, 3.883348e+002
7.292795e+002, 3.879725e+002
7.297617e+002, 3.878465e+002
7.302438e+002, 3.875892e+002
7.307259e+002, 3.869748e+002
7.312080e+002, 3.862934e+002
7.316901e+002, 3.862326e+002
7.321722e+002, 3.870791e+002
7.326544e+002, 3.873009e+002
7.331365e+002, 3.863322e+002
7.336186e+002, 3.855140e+002
7.341007e+002, 3.853425e+002
7.345828e+002, 3.856427e+002
7.350649e+002, 3.863887e+002
7.355471e+002, 3.876429e+002
7.360292e+002, 3.884580e+002
7.365113e+002, 3.879899e+002
7.369934e+002, 3.871946e+002
7.374755e+002, 3.870381e+002
7.379576e+002, 3.873684e+002
7.384398e+002, 3.876330e+002
7.389219e+002, 3.876358e+002
7.394040e+002, 3.875556e+002
7.398861e+002, 3.876468e+002
7.403682e+002, 3.879005e+002
7.408503e+002, 3.877848e+002
7.413325e+002, 3.870128e+002
7.418146e+002, 3.864709e+002
7.422967e+002, 3.868170e+002
7.427788e+002, 3.871745e+002
7.432609e+002, 3.865903e+002
7.437430e+002, 3.852006e+002
7.442252e+002, 3.842901e+002
7.447073e+002, 3.844457e+002
7.451894e+002, 3.849808e+002
7.456715e+002, 3.857647e+002
7.461536e+002, 3.865195e+002
7.466357e+002, 3.867805e+002
7.471179e+002, 3.864961e+002
7.476000e+002, 3.859044e+002
7.480821e+002, 3.851345e+002
7.485642e+002, 3.843168e+002
7.490463e+002, 3.839709e+002
7.495284e+002, 3.843173e+002
7.500106e+002, 3.840909e+002
7.504927e+002, 3.826022e+002
7.509748e+002, 3.812348e+002
7.514569e+002, 3.810477e+002
7.519390e+002, 3.816467e+002
7.524211e+002, 3.822729e+002
7.529033e+002, 3.829875e+002
7.533854e+002, 3.833819e+002
7.538675e+002, 3.831307e+002
7.543496e+002, 3.826221e+002
7.548317e+002, 3.821552e+002
7.553138e+002, 3.817533e+002
7.557960e+002, 3.813199e+002
7.562781e+002, 3.808086e+002
7.567602e+002, 3.804268e+002
7.572423e+002, 3.805154e+002
7.577244e+002, 3.810592e+002
7.582065e+002, 3.817245e+002
7.586887e+002, 3.826523e+002
7.591708e+002, 3.831620e+002
7.596529e+002, 3.827266e+002
7.601350e+002, 3.819207e+002
7.606171e+002, 3.816039e+002
7.610992e+002, 3.817964e+002
7.615814e+002, 3.820389e+002
7.620635e+002, 3.821559e+002
7.625456e+002, 3.824511e+002
7.630277e+002, 3.833531e+002
7.635098e+002, 3.843700e+002
7.639919e+002, 3.848380e+002
7.644741e+002, 3.846836e+002
7.649562e+002, 3.843361e+002
7.654383e+002, 3.841145e+002
7.659204e+002, 3.839442e+002
7.664025e+002, 3.836103e+002
7.668846e+002, 3.831244e+002
7.673668e+002, 3.828076e+002
7.678489e+002, 3.827359e+002
7.683310e+002, 3.828221e+002
7.688131e+002, 3.830609e+002
7.692952e+002, 3.833957e+002
7.697773e+002, 3.835138e+002
7.702595e+002, 3.834058e+002
7.707416e+002, 3.830983e+002
7.712237e+002, 3.822783e+002
7.717058e+002, 3.815484e+002
7.721879e+002, 3.813727e+002
7.726700e+002, 3.815683e+002
7.731522e+002, 3.817130e+002
7.736343e+002, 3.816470e+002
7.741164e+002, 3.815591e+002
7.745985e+002, 3.817144e+002
7.750806e+002, 3.819578e+002
7.755627e+002, 3.817746e+002
7.760449e+002, 3.812095e+002
7.765270e+002, 3.811923e+002
7.770091e+002, 3.822482e+002
7.774912e+002, 3.834731e+002
7.779733e+002, 3.834283e+002
7.784554e+002, 3.818981e+002
7.789376e+002, 3.809064e+002
7.794197e+002, 3.808418e+002
7.799019e+002, 3.807967e+002
7.803840e+002, 3.805644e+002
7.808661e+002, 3.802808e+002
7.813482e+002, 3.800413e+002
7.818303e+002, 3.798596e+002
7.823124e+002, 3.797491e+002
7.827946e+002, 3.796976e+002
7.832767e+002, 3.797335e+002
7.837588e+002, 3.799736e+002
7.842409e+002, 3.802794e+002
7.847230e+002, 3.802259e+002
7.852051e+002, 3.798633e+002
7.856873e+002, 3.799804e+002
7.861694e+002, 3.811941e+002
7.866515e+002, 3.829836e+002
7.871336e+002, 3.839952e+002
7.876157e+002, 3.840972e+002
7.880978e+002, 3.841754e+002
7.885800e+002, 3.845027e+002
7.890621e+002, 3.844435e+002
7.895442e+002, 3.832404e+002
7.900263e+002, 3.816159e+002
7.905084e+002, 3.807358e+002
7.909905e+002, 3.807788e+002
7.914727e+002, 3.809221e+002
7.919548e+002, 3.809605e+002
7.924369e+002, 3.810454e+002
7.929190e+002, 3.813730e+002
7.934011e+002, 3.817746e+002
7.938832e+002, 3.819220e+002
7.943654e+002, 3.817655e+002
7.948475e+002, 3.816095e+002
7.953296e+002, 3.817034e+002
7.958117e+002, 3.820027e+002
7.962938e+002, 3.825376e+002
7.967759e+002, 3.832892e+002
7.972581e+002, 3.835316e+002
7.977402e+002, 3.830144e+002
7.982223e+002, 3.822137e+002
7.987044e+002, 3.813952e+002
7.991865e+002, 3.806488e+002
7.996686e+002, 3.805205e+002
8.001508e+002, 3.818598e+002
8.006329e+002, 3.825952e+002
8.011150e+002, 3.822598e+002
8.015971e+002, 3.817496e+002
8.020792e+002, 3.815384e+002
8.025613e+002, 3.815378e+002
8.030435e+002, 3.815520e+002
8.035256e+002, 3.815387e+002
8.040077e+002, 3.813970e+002
8.044898e+002, 3.809232e+002
8.049719e+002, 3.803632e+002
8.054540e+002, 3.800125e+002
8.059362e+002, 3.798984e+002
8.064183e+002, 3.801476e+002
8.069004e+002, 3.808039e+002
8.073825e+002, 3.813769e+002
8.078646e+002, 3.812135e+002
8.083467e+002, 3.804096e+002
8.088289e+002, 3.802552e+002
8.093110e+002, 3.810879e+002
8.097931e+002, 3.816590e+002
8.102752e+002, 3.816805e+002
8.107573e+002, 3.813787e+002
8.112394e+002, 3.807322e+002
8.117216e+002, 3.799019e+002
8.122037e+002, 3.794449e+002
8.126858e+002, 3.795458e+002
8.131679e+002, 3.798058e+002
8.136500e+002, 3.802482e+002
8.141321e+002, 3.806617e+002
8.146143e+002, 3.807171e+002
8.150964e+002, 3.806027e+002
8.155785e+002, 3.808661e+002
8.160606e+002, 3.817195e+002
8.165427e+002, 3.825867e+002
8.170248e+002, 3.827384e+002
8.175070e+002, 3.823634e+002
8.179891e+002, 3.821137e+002
8.184712e+002, 3.819976e+002
8.189533e+002, 3.819533e+002
8.194354e+002, 3.820062e+002
8.199175e+002, 3.819184e+002
8.203997e+002, 3.812957e+002
8.208818e+002, 3.801595e+002
8.213639e+002, 3.798079e+002
8.218460e+002, 3.812325e+002
8.223281e+002, 3.819660e+002
8.228102e+002, 3.809175e+002
8.232924e+002, 3.798971e+002
8.237745e+002, 3.802955e+002
8.242566e+002, 3.816651e+002
8.247387e+002, 3.828073e+002
8.252208e+002, 3.835260e+002
8.257029e+002, 3.835164e+002
8.261851e+002, 3.820992e+002
8.266672e+002, 3.802062e+002
8.271493e+002, 3.787421e+002
8.276314e+002, 3.777918e+002
8.281135e+002, 3.774529e+002
8.285956e+002, 3.777278e+002
8.290778e+002, 3.780327e+002
8.295599e+002, 3.775360e+002
8.300420e+002, 3.764228e+002
8.305241e+002, 3.759839e+002
8.310062e+002, 3.763003e+002
8.314883e+002, 3.768184e+002
8.319705e+002, 3.775363e+002
8.324526e+002, 3.780992e+002
8.329347e+002, 3.780558e+002
8.334168e+002, 3.774956e+002
8.338989e+002, 3.773001e+002
8.343810e+002, 3.778145e+002
8.348632e+002, 3.781523e+002
8.353453e+002, 3.780968e+002
8.358274e+002, 3.779754e+002
8.363095e+002, 3.777289e+002
8.367916e+002, 3.776438e+002
8.372737e+002, 3.784257e+002
8.377559e+002, 3.803503e+002
8.382380e+002, 3.819150e+002
8.387201e+002, 3.818110e+002
8.392022e+002, 3.808508e+002
8.396843e+002, 3.799841e+002
8.401664e+002, 3.792407e+002
8.406486e+002, 3.784634e+002
8.411307e+002, 3.776257e+002
8.416128e+002, 3.770675e+002
8.420949e+002, 3.772076e+002
8.425770e+002, 3.778293e+002
8.430591e+002, 3.778887e+002
8.435413e+002, 3.772583e+002
8.440234e+002, 3.766952e+002
8.445055e+002, 3.762829e+002
8.449876e+002, 3.760161e+002
8.454697e+002, 3.758925e+002
8.459518e+002, 3.759137e+002
8.464340e+002, 3.761200e+002
8.469161e+002, 3.767088e+002
8.473982e+002, 3.769555e+002
8.478803e+002, 3.765263e+002
8.483624e+002, 3.760248e+002
8.488445e+002, 3.757548e+002
8.493267e+002, 3.756025e+002
8.498088e+002, 3.753473e+002
8.502909e+002, 3.749771e+002
8.507730e+002, 3.747599e+002
8.512551e+002, 3.750752e+002
8.517372e+002, 3.754243e+002
8.522194e+002, 3.750432e+002
8.527015e+002, 3.742501e+002
8.531836e+002, 3.738606e+002
8.536657e+002, 3.739872e+002
8.541478e+002, 3.742176e+002
8.546299e+002, 3.742832e+002
8.551121e+002, 3.742294e+002
8.555942e+002, 3.741762e+002
8.560763e+002, 3.741410e+002
8.565584e+002, 3.739125e+002
8.570405e+002, 3.733936e+002
8.575226e+002, 3.728853e+002
8.580048e+002, 3.722823e+002
8.584869e+002, 3.719588e+002
8.589690e+002, 3.727475e+002
8.594511e+002, 3.747674e+002
8.599332e+002, 3.757984e+002
8.604153e+002, 3.749572e+002
8.608975e+002, 3.741554e+002
8.613796e+002, 3.739771e+002
8.618617e+002, 3.740070e+002
8.623438e+002, 3.738819e+002
8.628259e+002, 3.736249e+002
8.633080e+002, 3.734455e+002
8.637902e+002, 3.734444e+002
8.642723e+002, 3.734777e+002
8.647544e+002, 3.734739e+002
8.652365e+002, 3.734013e+002
8.657186e+002, 3.732037e+002
8.662007e+002, 3.728896e+002
8.666829e+002, 3.724765e+002
8.671650e+002, 3.719774e+002
8.676471e+002, 3.714934e+002
8.681292e+002, 3.711451e+002
8.686113e+002, 3.709224e+002
8.690934e+002, 3.706909e+002
8.695756e+002, 3.703795e+002
8.700577e+002, 3.707006e+002
8.705398e+002, 3.721889e+002
8.710219e+002, 3.734150e+002
8.715040e+002, 3.730919e+002
8.719861e+002, 3.716575e+002
8.724683e+002, 3.707218e+002
8.729504e+002, 3.704653e+002
8.734325e+002, 3.703964e+002
8.739146e+002, 3.708615e+002
8.743967e+002, 3.711242e+002
8.748788e+002, 3.708515e+002
8.753610e+002, 3.702079e+002
8.758431e+002, 3.692392e+002
8.763252e+002, 3.680194e+002
8.768073e+002, 3.671986e+002
8.772894e+002, 3.673795e+002
8.777715e+002, 3.677620e+002
8.782537e+002, 3.675277e+002
8.787358e+002, 3.671948e+002
8.792179e+002, 3.677923e+002
8.797000e+002, 3.691808e+002
8.801821e+002, 3.701582e+002
8.806642e+002, 3.700159e+002
8.811464e+002, 3.694164e+002
8.816285e+002, 3.693364e+002
8.821106e+002, 3.696956e+002
8.825927e+002, 3.701167e+002
8.830748e+002, 3.705888e+002
8.835569e+002, 3.708517e+002
8.840391e+002, 3.708097e+002
8.845212e+002, 3.704862e+002
8.850033e+002, 3.698261e+002
8.854854e+002, 3.688685e+002
8.859675e+002, 3.683256e+002
8.864496e+002, 3.683672e+002
8.869318e+002, 3.684950e+002
8.874139e+002, 3.687320e+002
8.878960e+002, 3.689569e+002
8.883781e+002, 3.691141e+002
8.888602e+002, 3.692129e+002
8.893423e+002, 3.692909e+002
8.898245e+002, 3.693866e+002
8.903066e+002, 3.693225e+002
8.907887e+002, 3.687395e+002
8.912708e+002, 3.683235e+002
8.917529e+002, 3.687977e+002
8.922350e+002, 3.695208e+002
8.927172e+002, 3.694113e+002
8.931993e+002, 3.685041e+002
8.936814e+002, 3.679642e+002
8.941635e+002, 3.685633e+002
8.946456e+002, 3.696964e+002
8.951277e+002, 3.708758e+002
8.956099e+002, 3.719613e+002
8.960920e+002, 3.724940e+002
8.965741e+002, 3.725282e+002
8.970562e+002, 3.727721e+002
8.975383e+002, 3.735826e+002
8.980204e+002, 3.742935e+002
8.985026e+002, 3.738470e+002
8.989847e+002, 3.723426e+002
8.994668e+002, 3.709878e+002
8.999489e+002, 3.696586e+002
9.004310e+002, 3.692005e+002
9.009131e+002, 3.700849e+002
9.013953e+002, 3.713359e+002
9.018774e+002, 3.722470e+002
9.023595e+002, 3.728209e+002
9.028416e+002, 3.730385e+002
9.033237e+002, 3.727937e+002
9.038058e+002, 3.723948e+002
9.042880e+002, 3.715632e+002
9.047701e+002, 3.709178e+002
9.052522e+002, 3.705402e+002
9.057343e+002, 3.705866e+002
9.062164e+002, 3.715872e+002
9.066985e+002, 3.734716e+002
9.071807e+002, 3.745574e+002
9.076628e+002, 3.737924e+002
9.081449e+002, 3.726082e+002
9.086270e+002, 3.715630e+002
9.091091e+002, 3.706732e+002
9.095912e+002, 3.699854e+002
9.100734e+002, 3.694624e+002
9.105555e+002, 3.689928e+002
9.110376e+002, 3.685257e+002
9.115197e+002, 3.681228e+002
9.120018e+002, 3.677297e+002
9.124839e+002, 3.675002e+002
9.129661e+002, 3.678518e+002
9.134482e+002, 3.686938e+002
9.139303e+002, 3.696493e+002
9.144124e+002, 3.706042e+002
9.148945e+002, 3.712823e+002
9.153766e+002, 3.714462e+002
9.158588e+002, 3.711431e+002
9.163409e+002, 3.704858e+002
9.168230e+002, 3.694560e+002
9.173051e+002, 3.681945e+002
9.177872e+002, 3.665822e+002
9.182693e+002, 3.651821e+002
9.187515e+002, 3.642688e+002
9.192336e+002, 3.637295e+002
9.197157e+002, 3.634552e+002
9.201978e+002, 3.634864e+002
9.206799e+002, 3.633619e+002
9.211620e+002, 3.629927e+002
9.216442e+002, 3.625848e+002
9.221263e+002, 3.618079e+002
9.226084e+002, 3.613333e+002
9.230905e+002, 3.620218e+002
9.235726e+002, 3.632871e+002
9.240547e+002, 3.636748e+002
9.245369e+002, 3.626830e+002
9.250190e+002, 3.618064e+002
9.255011e+002, 3.616093e+002
9.259832e+002, 3.616684e+002
9.264653e+002, 3.617321e+002
9.269474e+002, 3.618587e+002
9.274296e+002, 3.623174e+002
9.279117e+002, 3.630099e+002
9.283938e+002, 3.633160e+002
9.288759e+002, 3.627938e+002
9.293580e+002, 3.619316e+002
9.298401e+002, 3.611880e+002
9.303223e+002, 3.605234e+002
9.308044e+002, 3.597583e+002
9.312865e+002, 3.589779e+002
9.317686e+002, 3.585968e+002
9.322507e+002, 3.587764e+002
9.327328e+002, 3.592423e+002
9.332150e+002, 3.597968e+002
9.336971e+002, 3.603060e+002
9.341792e+002, 3.601148e+002
9.346613e+002, 3.592243e+002
9.351434e+002, 3.586844e+002
9.356255e+002, 3.587462e+002
9.361077e+002, 3.587707e+002
9.365898e+002, 3.583277e+002
9.370719e+002, 3.575948e+002
9.375540e+002, 3.569782e+002
9.380361e+002, 3.565480e+002
9.385182e+002, 3.558167e+002
9.390004e+002, 3.543947e+002
9.394825e+002, 3.534514e+002
9.399646e+002, 3.537463e+002
9.404467e+002, 3.542099e+002
9.409288e+002, 3.535272e+002
9.414109e+002, 3.521007e+002
9.418931e+002, 3.517825e+002
9.423752e+002, 3.533665e+002
9.428573e+002, 3.547060e+002
9.433394e+002, 3.556381e+002
9.438215e+002, 3.561737e+002
9.443036e+002, 3.560694e+002
9.447858e+002, 3.557072e+002
9.452679e+002, 3.556344e+002
9.457500e+002, 3.558770e+002
9.462321e+002, 3.558995e+002
9.467142e+002, 3.552335e+002
9.471964e+002, 3.546040e+002
9.476785e+002, 3.545108e+002
9.481606e+002, 3.546393e+002
9.486427e+002, 3.546747e+002
9.491248e+002, 3.546116e+002
9.496069e+002, 3.544691e+002
9.500891e+002, 3.542706e+002
9.505712e+002, 3.543377e+002
9.510533e+002, 3.555878e+002
9.515354e+002, 3.568936e+002
9.520175e+002, 3.560008e+002
9.524996e+002, 3.536503e+002
9.529818e+002, 3.518020e+002
9.534639e+002, 3.508572e+002
9.539460e+002, 3.507372e+002
9.544281e+002, 3.514305e+002
9.549102e+002, 3.525764e+002
9.553923e+002, 3.536881e+002
9.558745e+002, 3.547315e+002
9.563566e+002, 3.552991e+002
9.568387e+002, 3.553780e+002
9.573208e+002, 3.550439e+002
9.578029e+002, 3.541995e+002
9.582850e+002, 3.536673e+002
9.587672e+002, 3.543942e+002
9.592493e+002, 3.558662e+002
9.597314e+002, 3.558096e+002
9.602135e+002, 3.534483e+002
9.606956e+002, 3.524643e+002
9.611777e+002, 3.536458e+002
9.616599e+002, 3.548459e+002
9.621420e+002, 3.549821e+002
9.626241e+002, 3.548910e+002
9.631062e+002, 3.557386e+002
9.635883e+002, 3.575171e+002
9.640704e+002, 3.587628e+002
9.645526e+002, 3.591497e+002
9.650347e+002, 3.595057e+002
9.655168e+002, 3.597271e+002
9.659989e+002, 3.601168e+002
9.664810e+002, 3.610625e+002
9.669631e+002, 3.621820e+002
9.674453e+002, 3.629029e+002
9.679274e+002, 3.631573e+002
9.684095e+002, 3.631808e+002
9.688916e+002, 3.627718e+002
9.693737e+002, 3.624917e+002
9.698558e+002, 3.625543e+002
9.703380e+002, 3.628914e+002
9.708201e+002, 3.636812e+002
9.713022e+002, 3.646438e+002
9.717843e+002, 3.650142e+002
9.722664e+002, 3.644840e+002
9.727485e+002, 3.643204e+002
9.732307e+002, 3.655312e+002
9.737128e+002, 3.673658e+002
9.741949e+002, 3.693067e+002
9.746770e+002, 3.712423e+002
9.751591e+002, 3.730230e+002
9.756412e+002, 3.746484e+002
9.761234e+002, 3.762230e+002
9.766055e+002, 3.777989e+002
9.770876e+002, 3.794182e+002
9.775698e+002, 3.811949e+002
9.780519e+002, 3.830214e+002
9.785340e+002, 3.847445e+002
9.790161e+002, 3.863044e+002
9.794982e+002, 3.874831e+002
9.799803e+002, 3.882423e+002
9.804625e+002, 3.888022e+002
9.809446e+002, 3.893068e+002
9.814267e+002, 3.898393e+002
9.819088e+002, 3.907577e+002
9.823909e+002, 3.919615e+002
9.828730e+002, 3.923750e+002
9.833552e+002, 3.919169e+002
9.838373e+002, 3.914077e+002
9.843194e+002, 3.911143e+002
9.848015e+002, 3.911190e+002
9.852836e+002, 3.915273e+002
9.857657e+002, 3.922978e+002
9.862479e+002, 3.933458e+002
9.867300e+002, 3.948820e+002
9.872121e+002, 3.955020e+002
9.876942e+002, 3.947934e+002
9.881763e+002, 3.940688e+002
9.886584e+002, 3.939355e+002
9.891406e+002, 3.940926e+002
9.896227e+002, 3.941471e+002
9.901048e+002, 3.941009e+002
9.905869e+002, 3.941366e+002
9.910690e+002, 3.943933e+002
9.915511e+002, 3.944744e+002
9.920333e+002, 3.947089e+002
9.925154e+002, 3.942994e+002
9.929975e+002, 3.922220e+002
9.934796e+002, 3.895216e+002
9.939617e+002, 3.879360e+002
9.944438e+002, 3.875946e+002
9.949260e+002, 3.869424e+002
9.954081e+002, 3.855313e+002
9.958902e+002, 3.842867e+002
9.963723e+002, 3.836130e+002
9.968544e+002, 3.829570e+002
9.973365e+002, 3.817812e+002
9.978187e+002, 3.803987e+002
9.983008e+002, 3.795863e+002
9.987829e+002, 3.795527e+002
9.992650e+002, 3.790065e+002
9.997471e+002, 3.770371e+002
1.000229e+003, 3.751127e+002
1.000711e+003, 3.738691e+002
1.001193e+003, 3.730170e+002
1.001676e+003, 3.723943e+002
1.002158e+003, 3.718736e+002
1.002640e+003, 3.712580e+002
1.003122e+003, 3.704864e+002
1.003604e+003, 3.696392e+002
1.004086e+003, 3.687648e+002
1.004568e+003, 3.678245e+002
1.005050e+003, 3.665965e+002
1.005533e+003, 3.653955e+002
1.006015e+003, 3.646544e+002
1.006497e+003, 3.643710e+002
1.006979e+003, 3.644050e+002
1.007461e+003, 3.647485e+002
1.007943e+003, 3.648236e+002
1.008425e+003, 3.635174e+002
1.008907e+003, 3.621234e+002
1.009389e+003, 3.626071e+002
1.009872e+003, 3.642447e+002
1.010354e+003, 3.655242e+002
1.010836e+003, 3.661661e+002
1.011318e+003, 3.664393e+002
1.011800e+003, 3.664406e+002
1.012282e+003, 3.666227e+002
1.012764e+003, 3.677958e+002
1.013246e+003, 3.694579e+002
1.013729e+003, 3.706818e+002
1.014211e+003, 3.714002e+002
1.014693e+003, 3.712511e+002
1.015175e+003, 3.702873e+002
1.015657e+003, 3.696031e+002
1.016139e+003, 3.699823e+002
1.016621e+003, 3.709240e+002
1.017103e+003, 3.716544e+002
1.017585e+003, 3.722007e+002
1.018068e+003, 3.725570e+002
1.018550e+003, 3.727790e+002
1.019032e+003, 3.734301e+002
1.019514e+003, 3.746652e+002
1.019996e+003, 3.762359e+002
1.020478e+003, 3.779704e+002
1.020960e+003, 3.797694e+002
1.021442e+003, 3.814308e+002
1.021924e+003, 3.829457e+002
1.022407e+003, 3.842888e+002
1.022889e+003, 3.854749e+002
1.023371e+003, 3.860151e+002
1.023853e+003, 3.856513e+002
1.024335e+003, 3.853216e+002
1.024817e+003, 3.859214e+002
1.025299e+003, 3.870918e+002
1.025781e+003, 3.876703e+002
1.026264e+003, 3.875616e+002
1.026746e+003, 3.876865e+002
1.027228e+003, 3.881229e+002
1.027710e+003, 3.885943e+002
1.028192e+003, 3.891273e+002
1.028674e+003, 3.893219e+002
1.029156e+003, 3.887413e+002
1.029638e+003, 3.875455e+002
1.030120e+003, 3.862962e+002
1.030603e+003, 3.848254e+002
1.031085e+003, 3.839754e+002
1.031567e+003, 3.839142e+002
1.032049e+003, 3.841640e+002
1.032531e+003, 3.848646e+002
1.033013e+003, 3.853194e+002
1.033495e+003, 3.847128e+002
1.033977e+003, 3.832757e+002
1.034459e+003, 3.821823e+002
1.034942e+003, 3.816073e+002
1.035424e+003, 3.809666e+002
1.035906e+003, 3.803119e+002
1.036388e+003, 3.794836e+002
1.036870e+003, 3.781140e+002
1.037352e+003, 3.768843e+002
1.037834e+003, 3.767321e+002
1.038316e+003, 3.773707e+002
1.038799e+003, 3.770503e+002
1.039281e+003, 3.746771e+002
1.039763e+003, 3.734788e+002
1.040245e+003, 3.746368e+002
1.040727e+003, 3.754439e+002
1.041209e+003, 3.748828e+002
1.041691e+003, 3.737077e+002
1.042173e+003, 3.725812e+002
1.042656e+003, 3.714571e+002
1.043138e+003, 3.700811e+002
1.043620e+003, 3.680179e+002
1.044102e+003, 3.665572e+002
1.044584e+003, 3.661151e+002
1.045066e+003, 3.658621e+002
1.045548e+003, 3.657788e+002
1.046030e+003, 3.655324e+002
1.046512e+003, 3.647442e+002
1.046995e+003, 3.634999e+002
1.047477e+003, 3.621821e+002
1.047959e+003, 3.605199e+002
1.048441e+003, 3.595169e+002
1.048923e+003, 3.599478e+002
1.049405e+003, 3.603139e+002
1.049887e+003, 3.598505e+002
1.050369e+003, 3.591502e+002
1.050851e+003, 3.588615e+002
1.051334e+003, 3.588997e+002
1.051816e+003, 3.587744e+002
1.052298e+003, 3.584000e+002
1.052780e+003, 3.578651e+002
1.053262e+003, 3.566931e+002
1.053744e+003, 3.559545e+002
1.054226e+003, 3.565755e+002
1.054708e+003, 3.575296e+002
1.055191e+003, 3.578865e+002
1.055673e+003, 3.576229e+002
1.056155e+003, 3.569403e+002
1.056637e+003, 3.556788e+002
1.057119e+003, 3.546953e+002
1.057601e+003, 3.545072e+002
1.058083e+003, 3.543412e+002
1.058565e+003, 3.538239e+002
1.059047e+003, 3.531319e+002
1.059530e+003, 3.522108e+002
1.060012e+003, 3.513057e+002
1.060494e+003, 3.511908e+002
1.060976e+003, 3.523498e+002
1.061458e+003, 3.528716e+002
1.061940e+003, 3.517462e+002
1.062422e+003, 3.502197e+002
1.062904e+003, 3.485899e+002
1.063386e+003, 3.471698e+002
1.063869e+003, 3.462318e+002
1.064351e+003, 3.457418e+002
1.064833e+003, 3.456244e+002
1.065315e+003, 3.459338e+002
1.065797e+003, 3.460575e+002
1.066279e+003, 3.454904e+002
1.066761e+003, 3.449942e+002
1.067243e+003, 3.448438e+002
1.067726e+003, 3.450739e+002
1.068208e+003, 3.462914e+002
1.068690e+003, 3.477699e+002
1.069172e+003, 3.477259e+002
1.069654e+003, 3.456334e+002
1.070136e+003, 3.436380e+002
1.070618e+003, 3.427270e+002
1.071100e+003, 3.420768e+002
1.071583e+003, 3.409910e+002
1.072065e+003, 3.401873e+002
1.072547e+003, 3.408795e+002
1.073029e+003, 3.422251e+002
1.073511e+003, 3.421520e+002
1.073993e+003, 3.402155e+002
1.074475e+003, 3.389252e+002
1.074957e+003, 3.400443e+002
1.075439e+003, 3.412248e+002
1.075922e+003, 3.411026e+002
1.076404e+003, 3.406804e+002
1.076886e+003, 3.408737e+002
1.077368e+003, 3.414424e+002
1.077850e+003, 3.418172e+002
1.078332e+003, 3.418968e+002
1.078814e+003, 3.419290e+002
1.079296e+003, 3.420172e+002
1.079779e+003, 3.420888e+002
1.080261e+003, 3.420049e+002
1.080743e+003, 3.419937e+002
1.081225e+003, 3.425264e+002
1.081707e+003, 3.431203e+002
1.082189e+003, 3.428239e+002
1.082671e+003, 3.416523e+002
1.083153e+003, 3.408765e+002
1.083635e+003, 3.412620e+002
1.084118e+003, 3.416068e+002
1.084600e+003, 3.410070e+002
1.085082e+003, 3.405454e+002
1.085564e+003, 3.414318e+002
1.086046e+003, 3.427030e+002
1.086528e+003, 3.428781e+002
1.087010e+003, 3.420034e+002
1.087492e+003, 3.413300e+002
1.087974e+003, 3.412649e+002
1.088457e+003, 3.414373e+002
1.088939e+003, 3.417999e+002
1.089421e+003, 3.422322e+002
1.089903e+003, 3.427253e+002
1.090385e+003, 3.432003e+002
1.090867e+003, 3.436217e+002
1.091349e+003, 3.439439e+002
1.091831e+003, 3.441137e+002
1.092314e+003, 3.442117e+002
1.092796e+003, 3.437450e+002
1.093278e+003, 3.421253e+002
1.093760e+003, 3.403824e+002
1.094242e+003, 3.384025e+002
1.094724e+003, 3.370777e+002
1.095206e+003, 3.377239e+002
1.095688e+003, 3.396275e+002
1.096171e+003, 3.408436e+002
1.096653e+003, 3.408911e+002
1.097135e+003, 3.410204e+002
1.097617e+003, 3.417575e+002
1.098099e+003, 3.424431e+002
1.098581e+003, 3.429688e+002
1.099063e+003, 3.432055e+002
1.099545e+003, 3.428696e+002
1.100027e+003, 3.422480e+002
1.100510e+003, 3.419995e+002
1.100992e+003, 3.422310e+002
1.101474e+003, 3.418817e+002
1.101956e+003, 3.399257e+002
1.102438e+003, 3.384960e+002
1.102920e+003, 3.380990e+002
1.103402e+003, 3.384550e+002
1.103884e+003, 3.398241e+002
1.104366e+003, 3.415844e+002
1.104849e+003, 3.431035e+002
1.105331e+003, 3.442760e+002
1.105813e+003, 3.446441e+002
1.106295e+003, 3.435527e+002
1.106777e+003, 3.425772e+002
1.107259e+003, 3.420863e+002
1.107741e+003, 3.415574e+002
1.108223e+003, 3.406902e+002
1.108706e+003, 3.397119e+002
1.109188e+003, 3.387902e+002
1.109670e+003, 3.379580e+002
1.110152e+003, 3.373959e+002
1.110634e+003, 3.373782e+002
1.111116e+003, 3.370228e+002
1.111598e+003, 3.354440e+002
1.112080e+003, 3.346391e+002
1.112563e+003, 3.360424e+002
1.113045e+003, 3.376480e+002
1.113527e+003, 3.376528e+002
1.114009e+003, 3.367012e+002
1.114491e+003, 3.365734e+002
1.114973e+003, 3.375881e+002
1.115455e+003, 3.380712e+002
1.115937e+003, 3.378306e+002
1.116419e+003, 3.373800e+002
1.116901e+003, 3.365290e+002
1.117384e+003, 3.358825e+002
1.117866e+003, 3.358600e+002
1.118348e+003, 3.362117e+002
1.118830e+003, 3.365578e+002
1.119312e+003, 3.368971e+002
1.119794e+003, 3.371378e+002
1.120276e+003, 3.374247e+002
1.120758e+003, 3.371585e+002
1.121241e+003, 3.359686e+002
1.121723e+003, 3.348795e+002
1.122205e+003, 3.343161e+002
1.122687e+003, 3.341454e+002
1.123169e+003, 3.343315e+002
1.123651e+003, 3.347433e+002
1.124133e+003, 3.345794e+002
1.124615e+003, 3.337269e+002
1.125098e+003, 3.327970e+002
1.125580e+003, 3.316859e+002
1.126062e+003, 3.311362e+002
1.126544e+003, 3.315416e+002
1.127026e+003, 3.320560e+002
1.127508e+003, 3.319648e+002
1.127990e+003, 3.314874e+002
1.128472e+003, 3.311718e+002
1.128954e+003, 3.310276e+002
1.129437e+003, 3.306675e+002
1.129919e+003, 3.300645e+002
1.130401e+003, 3.296093e+002
1.130883e+003, 3.293681e+002
1.131365e+003, 3.294297e+002
1.131847e+003, 3.298668e+002
1.132329e+003, 3.304752e+002
1.132811e+003, 3.309619e+002
1.133293e+003, 3.313432e+002
1.133776e+003, 3.316612e+002
1.134258e+003, 3.319341e+002
1.134740e+003, 3.325318e+002
1.135222e+003, 3.334246e+002
1.135704e+003, 3.335521e+002
1.136186e+003, 3.324959e+002
1.136668e+003, 3.315436e+002
1.137150e+003, 3.320372e+002
1.137633e+003, 3.332462e+002
1.138115e+003, 3.339106e+002
1.138597e+003, 3.340220e+002
1.139079e+003, 3.333123e+002
1.139561e+003, 3.320233e+002
1.140043e+003, 3.310778e+002
1.140525e+003, 3.306979e+002
1.141007e+003, 3.305825e+002
1.141490e+003, 3.305490e+002
1.141972e+003, 3.306447e+002
1.142454e+003, 3.308914e+002
1.142936e+003, 3.313313e+002
1.143418e+003, 3.326630e+002
1.143900e+003, 3.339791e+002
1.144382e+003, 3.328640e+002
1.144864e+003, 3.298178e+002
1.145346e+003, 3.277325e+002
1.145828e+003, 3.277309e+002
1.146311e+003, 3.282329e+002
1.146793e+003, 3.279676e+002
1.147275e+003, 3.277336e+002
1.147757e+003, 3.284516e+002
1.148239e+003, 3.294665e+002
1.148721e+003, 3.299081e+002
1.149203e+003, 3.300567e+002
1.149685e+003, 3.307912e+002
1.150168e+003, 3.321233e+002
1.150650e+003, 3.328518e+002
1.151132e+003, 3.321966e+002
1.151614e+003, 3.314291e+002
1.152096e+003, 3.312529e+002
1.152578e+003, 3.311281e+002
1.153060e+003, 3.306977e+002
1.153542e+003, 3.300949e+002
1.154025e+003, 3.293379e+002
1.154507e+003, 3.285780e+002
1.154989e+003, 3.282404e+002
1.155471e+003, 3.284850e+002
1.155953e+003, 3.287692e+002
1.156435e+003, 3.290439e+002
1.156917e+003, 3.292372e+002
1.157399e+003, 3.291839e+002
1.157881e+003, 3.291923e+002
1.158364e+003, 3.297405e+002
1.158846e+003, 3.303676e+002
1.159328e+003, 3.301755e+002
1.159810e+003, 3.291156e+002
1.160292e+003, 3.284417e+002
1.160774e+003, 3.283493e+002
1.161256e+003, 3.283271e+002
1.161738e+003, 3.285606e+002
1.162220e+003, 3.284999e+002
1.162703e+003, 3.276574e+002
1.163185e+003, 3.268546e+002
1.163667e+003, 3.269301e+002
1.164149e+003, 3.276285e+002
1.164631e+003, 3.280731e+002
1.165113e+003, 3.281794e+002
1.165595e+003, 3.286166e+002
1.166077e+003, 3.295409e+002
1.166560e+003, 3.301092e+002
1.167042e+003, 3.301297e+002
1.167524e+003, 3.298248e+002
1.168006e+003, 3.292906e+002
1.168488e+003, 3.286161e+002
1.168970e+003, 3.278575e+002
1.169452e+003, 3.271325e+002
1.169934e+003, 3.272152e+002
1.170417e+003, 3.280296e+002
1.170899e+003, 3.285327e+002
1.171381e+003, 3.286291e+002
1.171863e+003, 3.285067e+002
1.172345e+003, 3.282328e+002
1.172827e+003, 3.277824e+002
1.173309e+003, 3.271003e+002
1.173791e+003, 3.263956e+002
1.174273e+003, 3.259866e+002
1.174755e+003, 3.258357e+002
1.175238e+003, 3.259915e+002
1.175720e+003, 3.262938e+002
1.176202e+003, 3.261741e+002
1.176684e+003, 3.256999e+002
1.177166e+003, 3.257236e+002
1.177648e+003, 3.265993e+002
1.178130e+003, 3.271176e+002
1.178612e+003, 3.257457e+002
1.179095e+003, 3.241312e+002
1.179577e+003, 3.240876e+002
1.180059e+003, 3.246225e+002
1.180541e+003, 3.245138e+002
1.181023e+003, 3.240182e+002
1.181505e+003, 3.238357e+002
1.181987e+003, 3.240643e+002
1.182469e+003, 3.243617e+002
1.182952e+003, 3.245821e+002
1.183434e+003, 3.248723e+002
1.183916e+003, 3.254464e+002
1.184398e+003, 3.259183e+002
1.184880e+003, 3.259891e+002
1.185362e+003, 3.259236e+002
1.185844e+003, 3.259317e+002
1.186326e+003, 3.260272e+002
1.186808e+003, 3.261705e+002
1.187291e+003, 3.263422e+002
1.187773e+003, 3.267172e+002
1.188255e+003, 3.276122e+002
1.188737e+003, 3.282529e+002
1.189219e+003, 3.287266e+002
1.189701e+003, 3.286909e+002
1.190183e+003, 3.276628e+002
1.190665e+003, 3.264451e+002
1.191147e+003, 3.258181e+002
1.191630e+003, 3.257677e+002
1.192112e+003, 3.263643e+002
1.192594e+003, 3.279210e+002
1.193076e+003, 3.284941e+002
1.193558e+003, 3.279218e+002
1.194040e+003, 3.271527e+002
1.194522e+003, 3.263543e+002
1.195004e+003, 3.256170e+002
1.195487e+003, 3.249673e+002
1.195969e+003, 3.245649e+002
1.196451e+003, 3.247180e+002
1.196933e+003, 3.252187e+002
1.197415e+003, 3.253062e+002
1.197897e+003, 3.250126e+002
1.198379e+003, 3.242642e+002
1.198861e+003, 3.232378e+002
1.199344e+003, 3.231185e+002
1.199826e+003, 3.241602e+002
1.200308e+003, 3.253008e+002
1.200790e+003, 3.258287e+002
1.201272e+003, 3.261026e+002
1.201754e+003, 3.266742e+002
1.202236e+003, 3.271623e+002
1.202718e+003, 3.268832e+002
1.203200e+003, 3.262081e+002
1.203682e+003, 3.257906e+002
1.204165e+003, 3.255865e+002
1.204647e+003, 3.250519e+002
1.205129e+003, 3.241022e+002
1.205611e+003, 3.237812e+002
1.206093e+003, 3.252197e+002
1.206575e+003, 3.264529e+002
1.207057e+003, 3.262696e+002
1.207539e+003, 3.257592e+002
1.208022e+003, 3.256011e+002
1.208504e+003, 3.255909e+002
1.208986e+003, 3.254322e+002
1.209468e+003, 3.251534e+002
1.209950e+003, 3.248810e+002
1.210432e+003, 3.244954e+002
1.210914e+003, 3.246783e+002
1.211396e+003, 3.264627e+002
1.211879e+003, 3.272538e+002
1.212361e+003, 3.260632e+002
1.212843e+003, 3.247867e+002
1.213325e+003, 3.242687e+002
1.213807e+003, 3.243025e+002
1.214289e+003, 3.247676e+002
1.214771e+003, 3.255015e+002
1.215253e+003, 3.256071e+002
1.215735e+003, 3.249446e+002
1.216218e+003, 3.251036e+002
1.216700e+003, 3.262238e+002
1.217182e+003, 3.266292e+002
1.217664e+003, 3.259019e+002
1.218146e+003, 3.251421e+002
1.218628e+003, 3.249890e+002
1.219110e+003, 3.252169e+002
1.219592e+003, 3.255260e+002
1.220074e+003, 3.260018e+002
1.220557e+003, 3.271260e+002
1.221039e+003, 3.284899e+002
1.221521e+003, 3.288256e+002
1.222003e+003, 3.284070e+002
1.222485e+003, 3.285368e+002
1.222967e+003, 3.293666e+002
1.223449e+003, 3.297799e+002
1.223931e+003, 3.291629e+002
1.224414e+003, 3.280922e+002
1.224896e+003, 3.267332e+002
1.225378e+003, 3.254246e+002
1.225860e+003, 3.243979e+002
1.226342e+003, 3.236125e+002
1.226824e+003, 3.230952e+002
1.227306e+003, 3.227507e+002
1.227788e+003, 3.223909e+002
1.228271e+003, 3.220052e+002
1.228753e+003, 3.218270e+002
1.229235e+003, 3.221530e+002
1.229717e+003, 3.222516e+002
1.230199e+003, 3.216847e+002
1.230681e+003, 3.213585e+002
1.231163e+003, 3.216783e+002
1.231645e+003, 3.221768e+002
1.232127e+003, 3.225447e+002
1.232609e+003, 3.228249e+002
1.233092e+003, 3.230569e+002
1.233574e+003, 3.232475e+002
1.234056e+003, 3.239441e+002
1.234538e+003, 3.253216e+002
1.235020e+003, 3.255220e+002
1.235502e+003, 3.242829e+002
1.235984e+003, 3.231827e+002
1.236466e+003, 3.227596e+002
1.236949e+003, 3.226808e+002
1.237431e+003, 3.226822e+002
1.237913e+003, 3.229242e+002
1.238395e+003, 3.240031e+002
1.238877e+003, 3.253488e+002
1.239359e+003, 3.254649e+002
1.239841e+003, 3.247946e+002
1.240323e+003, 3.243000e+002
1.240806e+003, 3.240897e+002
1.241288e+003, 3.240469e+002
1.241770e+003, 3.241122e+002
1.242252e+003, 3.241264e+002
1.242734e+003, 3.239150e+002
1.243216e+003, 3.238685e+002
1.243698e+003, 3.246622e+002
1.244180e+003, 3.252167e+002
1.244662e+003, 3.245009e+002
1.245145e+003, 3.234047e+002
1.245627e+003, 3.228526e+002
1.246109e+003, 3.226730e+002
1.246591e+003, 3.222752e+002
1.247073e+003, 3.215810e+002
1.247555e+003, 3.211284e+002
1.248037e+003, 3.211154e+002
1.248519e+003, 3.210210e+002
1.249001e+003, 3.207658e+002
1.249484e+003, 3.205333e+002
1.249966e+003, 3.203416e+002
1.250448e+003, 3.202813e+002
1.250930e+003, 3.204194e+002
1.251412e+003, 3.207589e+002
1.251894e+003, 3.214205e+002
1.252376e+003, 3.222802e+002
1.252858e+003, 3.221112e+002
1.253341e+003, 3.211143e+002
1.253823e+003, 3.211840e+002
1.254305e+003, 3.223807e+002
1.254787e+003, 3.238135e+002
1.255269e+003, 3.251201e+002
1.255751e+003, 3.257990e+002
1.256233e+003, 3.254636e+002
1.256715e+003, 3.247807e+002
1.257198e+003, 3.245128e+002
1.257680e+003, 3.242332e+002
1.258162e+003, 3.230478e+002
1.258644e+003, 3.218804e+002
1.259126e+003, 3.220716e+002
1.259608e+003, 3.231861e+002
1.260090e+003, 3.241982e+002
1.260572e+003, 3.249041e+002
1.261054e+003, 3.254216e+002
1.261536e+003, 3.258064e+002
1.262019e+003, 3.259460e+002
1.262501e+003, 3.257547e+002
1.262983e+003, 3.253815e+002
1.263465e+003, 3.244471e+002
1.263947e+003, 3.239074e+002
1.264429e+003, 3.247010e+002
1.264911e+003, 3.258162e+002
1.265393e+003, 3.256557e+002
1.265876e+003, 3.244408e+002
1.266358e+003, 3.237650e+002
1.266840e+003, 3.236806e+002
1.267322e+003, 3.230875e+002
1.267804e+003, 3.219484e+002
1.268286e+003, 3.212333e+002
1.268768e+003, 3.211558e+002
1.269250e+003, 3.211753e+002
1.269733e+003, 3.209915e+002
1.270215e+003, 3.210019e+002
1.270697e+003, 3.218049e+002
1.271179e+003, 3.228091e+002
1.271661e+003, 3.232379e+002
1.272143e+003, 3.232659e+002
1.272625e+003, 3.230404e+002
1.273107e+003, 3.226598e+002
1.273589e+003, 3.221400e+002
1.274072e+003, 3.215934e+002
1.274554e+003, 3.212961e+002
1.275036e+003, 3.213003e+002
1.275518e+003, 3.217258e+002
1.276000e+003, 3.230534e+002
1.276482e+003, 3.241205e+002
1.276964e+003, 3.247265e+002
1.277446e+003, 3.249046e+002
1.277929e+003, 3.241416e+002
1.278411e+003, 3.234710e+002
1.278893e+003, 3.240274e+002
1.279375e+003, 3.253221e+002
1.279857e+003, 3.260110e+002
1.280339e+003, 3.260896e+002
1.280821e+003, 3.261417e+002
1.281303e+003, 3.262141e+002
1.281786e+003, 3.260078e+002
1.282268e+003, 3.254658e+002
##END=



