##NAMES=Hercynite
##RRUFFID=R170038
##IDEAL CHEMISTRY=Fe^2+^Al_2_O_4_
##LOCALITY=LePrese, Veltlin, Switzerland
##OWNER=UAMM
##SOURCE=Rock Currier
##DESCRIPTION=Dark-green grains
##STATUS=The identification of this mineral is confirmed by single-crystal X-ray diffraction and chemical analysis.
##URL=rruff.info/R170038
##MEASURED CHEMISTRY=(Fe_0.65_Mg_0.35_Mn_0.01_)(Al_1.96_Fe_0.04_)O_4_   (Probed together with R130646).
8.955957e+001, 1.534284e+003
9.004169e+001, 1.530360e+003
9.052380e+001, 1.539145e+003
9.100592e+001, 1.556669e+003
9.148804e+001, 1.572437e+003
9.197015e+001, 1.585739e+003
9.245227e+001, 1.597906e+003
9.293439e+001, 1.608544e+003
9.341650e+001, 1.589733e+003
9.389862e+001, 1.553328e+003
9.438074e+001, 1.519094e+003
9.486285e+001, 1.487375e+003
9.534497e+001, 1.459482e+003
9.582709e+001, 1.436130e+003
9.630920e+001, 1.411701e+003
9.679132e+001, 1.388250e+003
9.727344e+001, 1.367382e+003
9.775555e+001, 1.349187e+003
9.823766e+001, 1.333269e+003
9.871978e+001, 1.319862e+003
9.920190e+001, 1.307067e+003
9.968401e+001, 1.294683e+003
1.001661e+002, 1.282667e+003
1.006482e+002, 1.271182e+003
1.011304e+002, 1.260344e+003
1.016125e+002, 1.249378e+003
1.020946e+002, 1.236321e+003
1.025767e+002, 1.219959e+003
1.030588e+002, 1.204239e+003
1.035409e+002, 1.189131e+003
1.040231e+002, 1.174978e+003
1.045052e+002, 1.164296e+003
1.049873e+002, 1.159806e+003
1.054694e+002, 1.158621e+003
1.059515e+002, 1.155629e+003
1.064336e+002, 1.150250e+003
1.069158e+002, 1.143312e+003
1.073979e+002, 1.135664e+003
1.078800e+002, 1.127358e+003
1.083621e+002, 1.118010e+003
1.088442e+002, 1.106021e+003
1.093263e+002, 1.093384e+003
1.098085e+002, 1.082328e+003
1.102906e+002, 1.074184e+003
1.107727e+002, 1.068269e+003
1.112548e+002, 1.061822e+003
1.117369e+002, 1.053037e+003
1.122190e+002, 1.046017e+003
1.127012e+002, 1.043177e+003
1.131833e+002, 1.042774e+003
1.136654e+002, 1.041625e+003
1.141475e+002, 1.036865e+003
1.146296e+002, 1.027849e+003
1.151117e+002, 1.021265e+003
1.155939e+002, 1.019584e+003
1.160760e+002, 1.017808e+003
1.165581e+002, 1.013654e+003
1.170402e+002, 1.007055e+003
1.175223e+002, 9.994113e+002
1.180044e+002, 9.922067e+002
1.184866e+002, 9.853270e+002
1.189687e+002, 9.795526e+002
1.194508e+002, 9.757274e+002
1.199329e+002, 9.725889e+002
1.204150e+002, 9.688138e+002
1.208971e+002, 9.639933e+002
1.213793e+002, 9.588887e+002
1.218614e+002, 9.551017e+002
1.223435e+002, 9.528993e+002
1.228256e+002, 9.496787e+002
1.233077e+002, 9.441725e+002
1.237898e+002, 9.368878e+002
1.242720e+002, 9.290628e+002
1.247541e+002, 9.199797e+002
1.252362e+002, 9.118278e+002
1.257183e+002, 9.071169e+002
1.262004e+002, 9.063431e+002
1.266825e+002, 9.066826e+002
1.271647e+002, 9.061917e+002
1.276468e+002, 9.049509e+002
1.281289e+002, 9.022030e+002
1.286110e+002, 8.963758e+002
1.290931e+002, 8.895901e+002
1.295752e+002, 8.831217e+002
1.300574e+002, 8.773185e+002
1.305395e+002, 8.721188e+002
1.310216e+002, 8.676046e+002
1.315037e+002, 8.646766e+002
1.319858e+002, 8.608084e+002
1.324679e+002, 8.548627e+002
1.329501e+002, 8.481420e+002
1.334322e+002, 8.419691e+002
1.339143e+002, 8.370428e+002
1.343964e+002, 8.332635e+002
1.348785e+002, 8.300692e+002
1.353606e+002, 8.296903e+002
1.358427e+002, 8.275628e+002
1.363249e+002, 8.209669e+002
1.368070e+002, 8.119746e+002
1.372891e+002, 8.047318e+002
1.377712e+002, 8.026116e+002
1.382533e+002, 8.056458e+002
1.387354e+002, 8.052358e+002
1.392176e+002, 8.006600e+002
1.396997e+002, 7.940767e+002
1.401818e+002, 7.851891e+002
1.406639e+002, 7.745792e+002
1.411460e+002, 7.650822e+002
1.416281e+002, 7.595826e+002
1.421103e+002, 7.582512e+002
1.425924e+002, 7.563868e+002
1.430745e+002, 7.540535e+002
1.435566e+002, 7.509484e+002
1.440387e+002, 7.462435e+002
1.445208e+002, 7.394554e+002
1.450030e+002, 7.328380e+002
1.454851e+002, 7.292294e+002
1.459672e+002, 7.277951e+002
1.464493e+002, 7.260269e+002
1.469314e+002, 7.228180e+002
1.474135e+002, 7.185123e+002
1.478957e+002, 7.140909e+002
1.483778e+002, 7.094263e+002
1.488599e+002, 7.049926e+002
1.493420e+002, 7.015529e+002
1.498241e+002, 6.987842e+002
1.503062e+002, 6.953978e+002
1.507884e+002, 6.893442e+002
1.512705e+002, 6.802960e+002
1.517526e+002, 6.743439e+002
1.522347e+002, 6.767541e+002
1.527168e+002, 6.788976e+002
1.531989e+002, 6.764518e+002
1.536811e+002, 6.694344e+002
1.541632e+002, 6.611249e+002
1.546453e+002, 6.554901e+002
1.551274e+002, 6.533405e+002
1.556095e+002, 6.519811e+002
1.560916e+002, 6.527129e+002
1.565738e+002, 6.531683e+002
1.570559e+002, 6.515451e+002
1.575380e+002, 6.475104e+002
1.580201e+002, 6.423013e+002
1.585022e+002, 6.379760e+002
1.589843e+002, 6.344531e+002
1.594665e+002, 6.322208e+002
1.599486e+002, 6.325467e+002
1.604307e+002, 6.335365e+002
1.609128e+002, 6.331874e+002
1.613949e+002, 6.307286e+002
1.618770e+002, 6.270673e+002
1.623592e+002, 6.244053e+002
1.628413e+002, 6.231020e+002
1.633234e+002, 6.221611e+002
1.638055e+002, 6.221649e+002
1.642876e+002, 6.223814e+002
1.647697e+002, 6.213353e+002
1.652519e+002, 6.181145e+002
1.657340e+002, 6.136669e+002
1.662161e+002, 6.103459e+002
1.666982e+002, 6.082657e+002
1.671803e+002, 6.068731e+002
1.676624e+002, 6.060599e+002
1.681445e+002, 6.057752e+002
1.686267e+002, 6.058551e+002
1.691088e+002, 6.068120e+002
1.695909e+002, 6.076573e+002
1.700730e+002, 6.065776e+002
1.705551e+002, 6.023880e+002
1.710372e+002, 5.982072e+002
1.715194e+002, 5.975003e+002
1.720015e+002, 6.006806e+002
1.724836e+002, 6.030646e+002
1.729657e+002, 6.016345e+002
1.734478e+002, 5.986382e+002
1.739299e+002, 5.958269e+002
1.744121e+002, 5.934494e+002
1.748942e+002, 5.918605e+002
1.753763e+002, 5.920853e+002
1.758584e+002, 5.952800e+002
1.763405e+002, 5.973116e+002
1.768226e+002, 5.958300e+002
1.773048e+002, 5.930524e+002
1.777869e+002, 5.912504e+002
1.782690e+002, 5.915573e+002
1.787511e+002, 5.931819e+002
1.792332e+002, 5.936169e+002
1.797153e+002, 5.912556e+002
1.801975e+002, 5.900823e+002
1.806796e+002, 5.921698e+002
1.811617e+002, 5.954786e+002
1.816438e+002, 5.973536e+002
1.821259e+002, 5.961251e+002
1.826080e+002, 5.924262e+002
1.830902e+002, 5.901677e+002
1.835723e+002, 5.912814e+002
1.840544e+002, 5.919690e+002
1.845365e+002, 5.913268e+002
1.850186e+002, 5.898561e+002
1.855007e+002, 5.886081e+002
1.859829e+002, 5.883632e+002
1.864650e+002, 5.889940e+002
1.869471e+002, 5.878959e+002
1.874292e+002, 5.824999e+002
1.879113e+002, 5.782658e+002
1.883934e+002, 5.779041e+002
1.888756e+002, 5.803032e+002
1.893577e+002, 5.821890e+002
1.898398e+002, 5.809825e+002
1.903219e+002, 5.768383e+002
1.908040e+002, 5.748507e+002
1.912861e+002, 5.772107e+002
1.917683e+002, 5.794202e+002
1.922504e+002, 5.787198e+002
1.927325e+002, 5.754098e+002
1.932146e+002, 5.718553e+002
1.936967e+002, 5.697450e+002
1.941788e+002, 5.690768e+002
1.946610e+002, 5.684126e+002
1.951431e+002, 5.677687e+002
1.956252e+002, 5.671167e+002
1.961073e+002, 5.667151e+002
1.965894e+002, 5.665826e+002
1.970715e+002, 5.657316e+002
1.975536e+002, 5.628105e+002
1.980358e+002, 5.585435e+002
1.985179e+002, 5.550922e+002
1.990000e+002, 5.539744e+002
1.994821e+002, 5.533121e+002
1.999642e+002, 5.500831e+002
2.004464e+002, 5.434361e+002
2.009285e+002, 5.377307e+002
2.014106e+002, 5.378062e+002
2.018927e+002, 5.406315e+002
2.023748e+002, 5.415616e+002
2.028569e+002, 5.380917e+002
2.033391e+002, 5.320157e+002
2.038212e+002, 5.267936e+002
2.043033e+002, 5.222762e+002
2.047854e+002, 5.190204e+002
2.052675e+002, 5.183846e+002
2.057496e+002, 5.188546e+002
2.062318e+002, 5.180784e+002
2.067139e+002, 5.144542e+002
2.071960e+002, 5.088534e+002
2.076781e+002, 5.043734e+002
2.081602e+002, 5.019074e+002
2.086423e+002, 4.992052e+002
2.091245e+002, 4.947792e+002
2.096066e+002, 4.897221e+002
2.100887e+002, 4.857563e+002
2.105708e+002, 4.842148e+002
2.110529e+002, 4.846100e+002
2.115350e+002, 4.840093e+002
2.120172e+002, 4.823798e+002
2.124993e+002, 4.795912e+002
2.129814e+002, 4.745676e+002
2.134635e+002, 4.685213e+002
2.139456e+002, 4.634239e+002
2.144277e+002, 4.606700e+002
2.149099e+002, 4.600267e+002
2.153920e+002, 4.587017e+002
2.158741e+002, 4.553647e+002
2.163562e+002, 4.526397e+002
2.168383e+002, 4.518719e+002
2.173204e+002, 4.520536e+002
2.178026e+002, 4.511992e+002
2.182847e+002, 4.477817e+002
2.187668e+002, 4.420016e+002
2.192489e+002, 4.381999e+002
2.197310e+002, 4.376662e+002
2.202131e+002, 4.376053e+002
2.206953e+002, 4.380000e+002
2.211774e+002, 4.383251e+002
2.216595e+002, 4.375677e+002
2.221416e+002, 4.348907e+002
2.226237e+002, 4.304349e+002
2.231058e+002, 4.271735e+002
2.235880e+002, 4.256997e+002
2.240701e+002, 4.245327e+002
2.245522e+002, 4.236464e+002
2.250343e+002, 4.227257e+002
2.255164e+002, 4.209466e+002
2.259985e+002, 4.175220e+002
2.264807e+002, 4.127506e+002
2.269628e+002, 4.097866e+002
2.274449e+002, 4.095774e+002
2.279270e+002, 4.098727e+002
2.284091e+002, 4.100600e+002
2.288912e+002, 4.100272e+002
2.293733e+002, 4.095109e+002
2.298555e+002, 4.082432e+002
2.303376e+002, 4.063639e+002
2.308197e+002, 4.047080e+002
2.313018e+002, 4.028275e+002
2.317839e+002, 4.015523e+002
2.322660e+002, 4.019601e+002
2.327482e+002, 4.036343e+002
2.332303e+002, 4.044345e+002
2.337124e+002, 4.027460e+002
2.341945e+002, 3.994330e+002
2.346766e+002, 3.974959e+002
2.351587e+002, 3.976291e+002
2.356409e+002, 3.982727e+002
2.361230e+002, 3.987367e+002
2.366051e+002, 3.989764e+002
2.370872e+002, 3.985310e+002
2.375693e+002, 3.966946e+002
2.380514e+002, 3.942741e+002
2.385336e+002, 3.930469e+002
2.390157e+002, 3.938073e+002
2.394978e+002, 3.945103e+002
2.399799e+002, 3.932469e+002
2.404620e+002, 3.901301e+002
2.409441e+002, 3.873113e+002
2.414263e+002, 3.855602e+002
2.419084e+002, 3.847460e+002
2.423905e+002, 3.846961e+002
2.428726e+002, 3.855880e+002
2.433547e+002, 3.867021e+002
2.438368e+002, 3.875424e+002
2.443190e+002, 3.881089e+002
2.448011e+002, 3.882653e+002
2.452832e+002, 3.879056e+002
2.457653e+002, 3.871017e+002
2.462474e+002, 3.857324e+002
2.467295e+002, 3.836877e+002
2.472117e+002, 3.817865e+002
2.476938e+002, 3.810004e+002
2.481759e+002, 3.814102e+002
2.486580e+002, 3.815919e+002
2.491401e+002, 3.811234e+002
2.496222e+002, 3.803116e+002
2.501044e+002, 3.791238e+002
2.505865e+002, 3.775703e+002
2.510686e+002, 3.763532e+002
2.515507e+002, 3.766642e+002
2.520328e+002, 3.787963e+002
2.525149e+002, 3.796127e+002
2.529971e+002, 3.771584e+002
2.534792e+002, 3.742272e+002
2.539613e+002, 3.722283e+002
2.544434e+002, 3.713128e+002
2.549255e+002, 3.710306e+002
2.554076e+002, 3.711858e+002
2.558898e+002, 3.719171e+002
2.563719e+002, 3.720245e+002
2.568540e+002, 3.707722e+002
2.573361e+002, 3.693299e+002
2.578182e+002, 3.680067e+002
2.583003e+002, 3.669202e+002
2.587824e+002, 3.662452e+002
2.592646e+002, 3.663934e+002
2.597467e+002, 3.675764e+002
2.602288e+002, 3.680665e+002
2.607109e+002, 3.668035e+002
2.611930e+002, 3.657065e+002
2.616751e+002, 3.656778e+002
2.621573e+002, 3.665379e+002
2.626394e+002, 3.675162e+002
2.631215e+002, 3.680284e+002
2.636036e+002, 3.680872e+002
2.640857e+002, 3.675177e+002
2.645678e+002, 3.658799e+002
2.650500e+002, 3.639697e+002
2.655321e+002, 3.614496e+002
2.660142e+002, 3.588111e+002
2.664963e+002, 3.571234e+002
2.669784e+002, 3.574960e+002
2.674605e+002, 3.599211e+002
2.679427e+002, 3.610845e+002
2.684248e+002, 3.598274e+002
2.689069e+002, 3.583470e+002
2.693890e+002, 3.570215e+002
2.698711e+002, 3.558726e+002
2.703532e+002, 3.548170e+002
2.708354e+002, 3.537782e+002
2.713175e+002, 3.527711e+002
2.717996e+002, 3.519573e+002
2.722817e+002, 3.515550e+002
2.727638e+002, 3.511275e+002
2.732459e+002, 3.505597e+002
2.737281e+002, 3.499210e+002
2.742102e+002, 3.493866e+002
2.746923e+002, 3.490899e+002
2.751744e+002, 3.488979e+002
2.756565e+002, 3.481528e+002
2.761386e+002, 3.454805e+002
2.766208e+002, 3.437693e+002
2.771029e+002, 3.437944e+002
2.775850e+002, 3.448215e+002
2.780671e+002, 3.461430e+002
2.785492e+002, 3.474470e+002
2.790313e+002, 3.484126e+002
2.795135e+002, 3.480346e+002
2.799956e+002, 3.439962e+002
2.804777e+002, 3.414079e+002
2.809598e+002, 3.413831e+002
2.814419e+002, 3.425278e+002
2.819240e+002, 3.434594e+002
2.824062e+002, 3.436496e+002
2.828883e+002, 3.433670e+002
2.833704e+002, 3.431693e+002
2.838525e+002, 3.435172e+002
2.843346e+002, 3.432395e+002
2.848167e+002, 3.413651e+002
2.852989e+002, 3.394244e+002
2.857810e+002, 3.389347e+002
2.862631e+002, 3.402350e+002
2.867452e+002, 3.423457e+002
2.872273e+002, 3.438945e+002
2.877094e+002, 3.448975e+002
2.881916e+002, 3.450946e+002
2.886737e+002, 3.442485e+002
2.891558e+002, 3.428394e+002
2.896379e+002, 3.406851e+002
2.901200e+002, 3.380194e+002
2.906021e+002, 3.360329e+002
2.910843e+002, 3.363638e+002
2.915664e+002, 3.401205e+002
2.920485e+002, 3.414549e+002
2.925306e+002, 3.382107e+002
2.930127e+002, 3.346692e+002
2.934948e+002, 3.334744e+002
2.939770e+002, 3.345650e+002
2.944591e+002, 3.363319e+002
2.949412e+002, 3.375279e+002
2.954233e+002, 3.381787e+002
2.959054e+002, 3.374372e+002
2.963875e+002, 3.336411e+002
2.968697e+002, 3.303316e+002
2.973518e+002, 3.292386e+002
2.978339e+002, 3.300020e+002
2.983160e+002, 3.314207e+002
2.987981e+002, 3.327940e+002
2.992802e+002, 3.340695e+002
2.997624e+002, 3.346241e+002
3.002445e+002, 3.336824e+002
3.007266e+002, 3.330104e+002
3.012087e+002, 3.335125e+002
3.016908e+002, 3.346231e+002
3.021729e+002, 3.352757e+002
3.026551e+002, 3.349007e+002
3.031372e+002, 3.337115e+002
3.036193e+002, 3.324149e+002
3.041014e+002, 3.304338e+002
3.045835e+002, 3.290607e+002
3.050656e+002, 3.288450e+002
3.055477e+002, 3.292302e+002
3.060298e+002, 3.295097e+002
3.065120e+002, 3.294166e+002
3.069941e+002, 3.291025e+002
3.074762e+002, 3.288782e+002
3.079583e+002, 3.290019e+002
3.084404e+002, 3.287411e+002
3.089225e+002, 3.276385e+002
3.094047e+002, 3.263569e+002
3.098868e+002, 3.255821e+002
3.103689e+002, 3.254681e+002
3.108510e+002, 3.256654e+002
3.113331e+002, 3.258160e+002
3.118152e+002, 3.261649e+002
3.122974e+002, 3.254913e+002
3.127795e+002, 3.224934e+002
3.132616e+002, 3.194771e+002
3.137437e+002, 3.183934e+002
3.142258e+002, 3.192194e+002
3.147079e+002, 3.201375e+002
3.151901e+002, 3.192852e+002
3.156722e+002, 3.163391e+002
3.161543e+002, 3.151604e+002
3.166364e+002, 3.172895e+002
3.171185e+002, 3.194593e+002
3.176006e+002, 3.200009e+002
3.180828e+002, 3.191630e+002
3.185649e+002, 3.180291e+002
3.190470e+002, 3.172966e+002
3.195291e+002, 3.169341e+002
3.200112e+002, 3.166668e+002
3.204933e+002, 3.168620e+002
3.209755e+002, 3.167275e+002
3.214576e+002, 3.154318e+002
3.219397e+002, 3.137336e+002
3.224218e+002, 3.131453e+002
3.229039e+002, 3.144935e+002
3.233860e+002, 3.169669e+002
3.238682e+002, 3.181378e+002
3.243503e+002, 3.164582e+002
3.248324e+002, 3.154143e+002
3.253145e+002, 3.160404e+002
3.257966e+002, 3.170908e+002
3.262787e+002, 3.168740e+002
3.267609e+002, 3.149069e+002
3.272430e+002, 3.125493e+002
3.277251e+002, 3.120489e+002
3.282072e+002, 3.149695e+002
3.286893e+002, 3.165060e+002
3.291714e+002, 3.155328e+002
3.296536e+002, 3.140250e+002
3.301357e+002, 3.137932e+002
3.306178e+002, 3.148680e+002
3.310999e+002, 3.155322e+002
3.315820e+002, 3.137265e+002
3.320641e+002, 3.086253e+002
3.325463e+002, 3.060401e+002
3.330284e+002, 3.074315e+002
3.335105e+002, 3.094114e+002
3.339926e+002, 3.109194e+002
3.344747e+002, 3.116824e+002
3.349568e+002, 3.113900e+002
3.354390e+002, 3.096764e+002
3.359211e+002, 3.066992e+002
3.364032e+002, 3.048215e+002
3.368853e+002, 3.044898e+002
3.373674e+002, 3.046793e+002
3.378495e+002, 3.061056e+002
3.383317e+002, 3.077148e+002
3.388138e+002, 3.076648e+002
3.392959e+002, 3.050052e+002
3.397780e+002, 3.009410e+002
3.402601e+002, 2.988893e+002
3.407422e+002, 3.009816e+002
3.412244e+002, 3.023602e+002
3.417065e+002, 3.023922e+002
3.421886e+002, 3.019209e+002
3.426707e+002, 3.018016e+002
3.431528e+002, 3.022242e+002
3.436349e+002, 3.026427e+002
3.441171e+002, 3.021404e+002
3.445992e+002, 2.998958e+002
3.450813e+002, 2.988865e+002
3.455634e+002, 3.004372e+002
3.460455e+002, 3.018736e+002
3.465276e+002, 3.014281e+002
3.470098e+002, 2.992822e+002
3.474919e+002, 2.968556e+002
3.479740e+002, 2.953632e+002
3.484561e+002, 2.948018e+002
3.489382e+002, 2.951592e+002
3.494203e+002, 2.977672e+002
3.499025e+002, 2.999478e+002
3.503846e+002, 3.008119e+002
3.508667e+002, 3.007448e+002
3.513488e+002, 3.005641e+002
3.518309e+002, 3.008056e+002
3.523130e+002, 3.011590e+002
3.527952e+002, 3.002227e+002
3.532773e+002, 2.959268e+002
3.537594e+002, 2.935075e+002
3.542415e+002, 2.949124e+002
3.547236e+002, 2.977903e+002
3.552057e+002, 2.999595e+002
3.556879e+002, 3.006766e+002
3.561700e+002, 3.004041e+002
3.566521e+002, 2.998552e+002
3.571342e+002, 2.990564e+002
3.576163e+002, 2.978690e+002
3.580984e+002, 2.953029e+002
3.585806e+002, 2.931273e+002
3.590627e+002, 2.925955e+002
3.595448e+002, 2.936176e+002
3.600269e+002, 2.950849e+002
3.605090e+002, 2.961050e+002
3.609911e+002, 2.966779e+002
3.614733e+002, 2.967161e+002
3.619554e+002, 2.960520e+002
3.624375e+002, 2.949770e+002
3.629196e+002, 2.926972e+002
3.634017e+002, 2.901734e+002
3.638839e+002, 2.894004e+002
3.643660e+002, 2.921007e+002
3.648481e+002, 2.967416e+002
3.653302e+002, 2.985009e+002
3.658123e+002, 2.958635e+002
3.662944e+002, 2.936227e+002
3.667766e+002, 2.938912e+002
3.672587e+002, 2.949984e+002
3.677408e+002, 2.953040e+002
3.682229e+002, 2.942891e+002
3.687050e+002, 2.927676e+002
3.691871e+002, 2.917833e+002
3.696692e+002, 2.914086e+002
3.701513e+002, 2.908257e+002
3.706335e+002, 2.896607e+002
3.711156e+002, 2.883936e+002
3.715977e+002, 2.872208e+002
3.720798e+002, 2.861948e+002
3.725619e+002, 2.855521e+002
3.730440e+002, 2.854257e+002
3.735262e+002, 2.858124e+002
3.740083e+002, 2.868396e+002
3.744904e+002, 2.889130e+002
3.749725e+002, 2.908290e+002
3.754546e+002, 2.919255e+002
3.759367e+002, 2.922849e+002
3.764189e+002, 2.919177e+002
3.769010e+002, 2.903260e+002
3.773831e+002, 2.883751e+002
3.778652e+002, 2.871613e+002
3.783473e+002, 2.866979e+002
3.788294e+002, 2.868177e+002
3.793116e+002, 2.876603e+002
3.797937e+002, 2.889738e+002
3.802758e+002, 2.904875e+002
3.807579e+002, 2.925209e+002
3.812400e+002, 2.938564e+002
3.817221e+002, 2.931439e+002
3.822043e+002, 2.909791e+002
3.826864e+002, 2.894146e+002
3.831685e+002, 2.889472e+002
3.836506e+002, 2.893417e+002
3.841327e+002, 2.907790e+002
3.846148e+002, 2.932419e+002
3.850970e+002, 2.948968e+002
3.855791e+002, 2.943168e+002
3.860612e+002, 2.931293e+002
3.865433e+002, 2.934836e+002
3.870254e+002, 2.955964e+002
3.875075e+002, 2.979553e+002
3.879897e+002, 2.995080e+002
3.884718e+002, 3.002310e+002
3.889539e+002, 3.006464e+002
3.894360e+002, 3.006415e+002
3.899181e+002, 3.004467e+002
3.904002e+002, 3.000251e+002
3.908824e+002, 2.994949e+002
3.913645e+002, 2.991071e+002
3.918466e+002, 2.989360e+002
3.923287e+002, 2.990807e+002
3.928108e+002, 2.998452e+002
3.932929e+002, 3.015045e+002
3.937751e+002, 3.032159e+002
3.942572e+002, 3.052769e+002
3.947393e+002, 3.071350e+002
3.952214e+002, 3.080353e+002
3.957035e+002, 3.078908e+002
3.961856e+002, 3.073837e+002
3.966678e+002, 3.072459e+002
3.971499e+002, 3.075216e+002
3.976320e+002, 3.079781e+002
3.981141e+002, 3.090855e+002
3.985962e+002, 3.098928e+002
3.990783e+002, 3.096650e+002
3.995605e+002, 3.087663e+002
4.000426e+002, 3.081559e+002
4.005247e+002, 3.084804e+002
4.010068e+002, 3.094473e+002
4.014889e+002, 3.097255e+002
4.019710e+002, 3.089238e+002
4.024532e+002, 3.078531e+002
4.029353e+002, 3.062339e+002
4.034174e+002, 3.045687e+002
4.038995e+002, 3.035826e+002
4.043816e+002, 3.033838e+002
4.048637e+002, 3.031046e+002
4.053459e+002, 3.013387e+002
4.058280e+002, 2.974435e+002
4.063101e+002, 2.943025e+002
4.067922e+002, 2.924692e+002
4.072743e+002, 2.908875e+002
4.077564e+002, 2.891341e+002
4.082386e+002, 2.872475e+002
4.087207e+002, 2.853716e+002
4.092028e+002, 2.834684e+002
4.096849e+002, 2.817268e+002
4.101670e+002, 2.811523e+002
4.106491e+002, 2.825628e+002
4.111313e+002, 2.836520e+002
4.116134e+002, 2.838479e+002
4.120955e+002, 2.833400e+002
4.125776e+002, 2.820690e+002
4.130597e+002, 2.799208e+002
4.135418e+002, 2.778251e+002
4.140240e+002, 2.771313e+002
4.145061e+002, 2.779068e+002
4.149882e+002, 2.782719e+002
4.154703e+002, 2.776811e+002
4.159524e+002, 2.767740e+002
4.164345e+002, 2.759938e+002
4.169167e+002, 2.753475e+002
4.173988e+002, 2.747941e+002
4.178809e+002, 2.742690e+002
4.183630e+002, 2.738345e+002
4.188451e+002, 2.735218e+002
4.193272e+002, 2.732606e+002
4.198094e+002, 2.735372e+002
4.202915e+002, 2.754586e+002
4.207736e+002, 2.779240e+002
4.212557e+002, 2.785534e+002
4.217378e+002, 2.759537e+002
4.222199e+002, 2.732360e+002
4.227021e+002, 2.730995e+002
4.231842e+002, 2.747082e+002
4.236663e+002, 2.749770e+002
4.241484e+002, 2.725290e+002
4.246305e+002, 2.692696e+002
4.251126e+002, 2.684922e+002
4.255948e+002, 2.705462e+002
4.260769e+002, 2.716813e+002
4.265590e+002, 2.698383e+002
4.270411e+002, 2.676729e+002
4.275232e+002, 2.684146e+002
4.280053e+002, 2.719489e+002
4.284875e+002, 2.748683e+002
4.289695e+002, 2.743536e+002
4.294517e+002, 2.707359e+002
4.299338e+002, 2.686704e+002
4.304159e+002, 2.689807e+002
4.308980e+002, 2.695541e+002
4.313801e+002, 2.702040e+002
4.318622e+002, 2.706376e+002
4.323444e+002, 2.703265e+002
4.328265e+002, 2.690947e+002
4.333086e+002, 2.674528e+002
4.337907e+002, 2.662259e+002
4.342728e+002, 2.652474e+002
4.347549e+002, 2.651679e+002
4.352371e+002, 2.668842e+002
4.357192e+002, 2.685887e+002
4.362013e+002, 2.690993e+002
4.366834e+002, 2.686165e+002
4.371655e+002, 2.682053e+002
4.376476e+002, 2.688206e+002
4.381298e+002, 2.701403e+002
4.386119e+002, 2.696681e+002
4.390940e+002, 2.649108e+002
4.395761e+002, 2.621729e+002
4.400582e+002, 2.644066e+002
4.405403e+002, 2.682354e+002
4.410225e+002, 2.701926e+002
4.415046e+002, 2.692476e+002
4.419867e+002, 2.669567e+002
4.424688e+002, 2.648037e+002
4.429509e+002, 2.626878e+002
4.434330e+002, 2.620307e+002
4.439152e+002, 2.643377e+002
4.443973e+002, 2.666399e+002
4.448794e+002, 2.668977e+002
4.453615e+002, 2.656507e+002
4.458436e+002, 2.646519e+002
4.463257e+002, 2.647307e+002
4.468079e+002, 2.655984e+002
4.472900e+002, 2.671519e+002
4.477721e+002, 2.695849e+002
4.482542e+002, 2.709867e+002
4.487363e+002, 2.695934e+002
4.492184e+002, 2.671563e+002
4.497006e+002, 2.666604e+002
4.501827e+002, 2.688412e+002
4.506648e+002, 2.707492e+002
4.511469e+002, 2.702099e+002
4.516290e+002, 2.684259e+002
4.521111e+002, 2.679661e+002
4.525933e+002, 2.694309e+002
4.530754e+002, 2.714603e+002
4.535575e+002, 2.729333e+002
4.540396e+002, 2.737762e+002
4.545217e+002, 2.737312e+002
4.550038e+002, 2.711171e+002
4.554860e+002, 2.691839e+002
4.559681e+002, 2.707988e+002
4.564502e+002, 2.746115e+002
4.569323e+002, 2.770936e+002
4.574144e+002, 2.764793e+002
4.578965e+002, 2.738798e+002
4.583787e+002, 2.718356e+002
4.588608e+002, 2.703040e+002
4.593429e+002, 2.695264e+002
4.598250e+002, 2.702470e+002
4.603071e+002, 2.711660e+002
4.607892e+002, 2.710275e+002
4.612714e+002, 2.699752e+002
4.617535e+002, 2.693961e+002
4.622356e+002, 2.707175e+002
4.627177e+002, 2.737538e+002
4.631998e+002, 2.748980e+002
4.636819e+002, 2.716239e+002
4.641641e+002, 2.696653e+002
4.646462e+002, 2.718513e+002
4.651283e+002, 2.751691e+002
4.656104e+002, 2.758775e+002
4.660925e+002, 2.727915e+002
4.665746e+002, 2.684972e+002
4.670568e+002, 2.662791e+002
4.675389e+002, 2.662684e+002
4.680210e+002, 2.669219e+002
4.685031e+002, 2.685550e+002
4.689852e+002, 2.703209e+002
4.694673e+002, 2.717776e+002
4.699495e+002, 2.729489e+002
4.704316e+002, 2.739594e+002
4.709137e+002, 2.750756e+002
4.713958e+002, 2.759018e+002
4.718779e+002, 2.756204e+002
4.723600e+002, 2.741862e+002
4.728422e+002, 2.728249e+002
4.733243e+002, 2.717839e+002
4.738064e+002, 2.713456e+002
4.742885e+002, 2.720783e+002
4.747706e+002, 2.743132e+002
4.752527e+002, 2.760807e+002
4.757349e+002, 2.766323e+002
4.762170e+002, 2.762704e+002
4.766991e+002, 2.751219e+002
4.771812e+002, 2.732470e+002
4.776633e+002, 2.715118e+002
4.781454e+002, 2.706519e+002
4.786276e+002, 2.706236e+002
4.791097e+002, 2.705763e+002
4.795918e+002, 2.699969e+002
4.800739e+002, 2.699811e+002
4.805560e+002, 2.718789e+002
4.810381e+002, 2.742145e+002
4.815203e+002, 2.744697e+002
4.820024e+002, 2.719113e+002
4.824845e+002, 2.686369e+002
4.829666e+002, 2.679568e+002
4.834487e+002, 2.710781e+002
4.839308e+002, 2.726157e+002
4.844130e+002, 2.709227e+002
4.848951e+002, 2.694301e+002
4.853772e+002, 2.702220e+002
4.858593e+002, 2.722665e+002
4.863414e+002, 2.731230e+002
4.868235e+002, 2.712718e+002
4.873057e+002, 2.680305e+002
4.877878e+002, 2.666537e+002
4.882699e+002, 2.677686e+002
4.887520e+002, 2.687241e+002
4.892341e+002, 2.688946e+002
4.897162e+002, 2.687400e+002
4.901984e+002, 2.681381e+002
4.906805e+002, 2.672593e+002
4.911626e+002, 2.671917e+002
4.916447e+002, 2.695887e+002
4.921268e+002, 2.731362e+002
4.926089e+002, 2.744019e+002
4.930910e+002, 2.728753e+002
4.935732e+002, 2.713876e+002
4.940553e+002, 2.715192e+002
4.945374e+002, 2.727610e+002
4.950195e+002, 2.740745e+002
4.955016e+002, 2.759094e+002
4.959837e+002, 2.767346e+002
4.964659e+002, 2.746440e+002
4.969480e+002, 2.713934e+002
4.974301e+002, 2.703575e+002
4.979122e+002, 2.722641e+002
4.983943e+002, 2.745250e+002
4.988764e+002, 2.744112e+002
4.993586e+002, 2.717156e+002
4.998407e+002, 2.704651e+002
5.003228e+002, 2.718294e+002
5.008049e+002, 2.731425e+002
5.012870e+002, 2.735146e+002
5.017691e+002, 2.731675e+002
5.022513e+002, 2.723844e+002
5.027334e+002, 2.712998e+002
5.032155e+002, 2.702180e+002
5.036976e+002, 2.697182e+002
5.041797e+002, 2.701349e+002
5.046618e+002, 2.701457e+002
5.051440e+002, 2.693136e+002
5.056261e+002, 2.685019e+002
5.061082e+002, 2.680303e+002
5.065903e+002, 2.678640e+002
5.070724e+002, 2.679146e+002
5.075545e+002, 2.682307e+002
5.080367e+002, 2.685289e+002
5.085188e+002, 2.678698e+002
5.090009e+002, 2.658606e+002
5.094830e+002, 2.653242e+002
5.099651e+002, 2.686271e+002
5.104472e+002, 2.722497e+002
5.109294e+002, 2.729368e+002
5.114115e+002, 2.707802e+002
5.118936e+002, 2.684245e+002
5.123757e+002, 2.672225e+002
5.128578e+002, 2.664858e+002
5.133400e+002, 2.649635e+002
5.138221e+002, 2.626391e+002
5.143042e+002, 2.609109e+002
5.147863e+002, 2.605653e+002
5.152684e+002, 2.613218e+002
5.157505e+002, 2.625208e+002
5.162327e+002, 2.648712e+002
5.167148e+002, 2.661615e+002
5.171969e+002, 2.653245e+002
5.176790e+002, 2.635297e+002
5.181611e+002, 2.616422e+002
5.186432e+002, 2.599474e+002
5.191254e+002, 2.588746e+002
5.196075e+002, 2.588923e+002
5.200896e+002, 2.599026e+002
5.205717e+002, 2.605242e+002
5.210538e+002, 2.610160e+002
5.215359e+002, 2.607331e+002
5.220180e+002, 2.584932e+002
5.225001e+002, 2.560477e+002
5.229822e+002, 2.553812e+002
5.234644e+002, 2.568068e+002
5.239465e+002, 2.586946e+002
5.244286e+002, 2.594358e+002
5.249107e+002, 2.590374e+002
5.253928e+002, 2.578731e+002
5.258749e+002, 2.551738e+002
5.263571e+002, 2.530587e+002
5.268392e+002, 2.529209e+002
5.273213e+002, 2.538436e+002
5.278034e+002, 2.545773e+002
5.282855e+002, 2.548165e+002
5.287676e+002, 2.548593e+002
5.292498e+002, 2.547970e+002
5.297319e+002, 2.547249e+002
5.302140e+002, 2.552747e+002
5.306961e+002, 2.568672e+002
5.311782e+002, 2.577614e+002
5.316603e+002, 2.558416e+002
5.321425e+002, 2.511702e+002
5.326246e+002, 2.480110e+002
5.331067e+002, 2.465136e+002
5.335888e+002, 2.464588e+002
5.340709e+002, 2.489886e+002
5.345530e+002, 2.526156e+002
5.350352e+002, 2.547027e+002
5.355173e+002, 2.543523e+002
5.359994e+002, 2.525141e+002
5.364815e+002, 2.502904e+002
5.369636e+002, 2.469877e+002
5.374457e+002, 2.460844e+002
5.379279e+002, 2.506099e+002
5.384100e+002, 2.542247e+002
5.388921e+002, 2.537312e+002
5.393742e+002, 2.509561e+002
5.398563e+002, 2.491954e+002
5.403384e+002, 2.499551e+002
5.408206e+002, 2.517387e+002
5.413027e+002, 2.521254e+002
5.417848e+002, 2.509815e+002
5.422669e+002, 2.502375e+002
5.427490e+002, 2.503540e+002
5.432311e+002, 2.507194e+002
5.437133e+002, 2.509393e+002
5.441954e+002, 2.510377e+002
5.446775e+002, 2.510799e+002
5.451596e+002, 2.509738e+002
5.456417e+002, 2.509304e+002
5.461238e+002, 2.514825e+002
5.466060e+002, 2.523638e+002
5.470881e+002, 2.522082e+002
5.475702e+002, 2.502937e+002
5.480523e+002, 2.480501e+002
5.485344e+002, 2.476069e+002
5.490165e+002, 2.496013e+002
5.494987e+002, 2.508063e+002
5.499808e+002, 2.507854e+002
5.504629e+002, 2.503797e+002
5.509450e+002, 2.496783e+002
5.514271e+002, 2.489954e+002
5.519092e+002, 2.490265e+002
5.523914e+002, 2.501077e+002
5.528735e+002, 2.515448e+002
5.533556e+002, 2.518460e+002
5.538377e+002, 2.504095e+002
5.543198e+002, 2.495851e+002
5.548019e+002, 2.500840e+002
5.552841e+002, 2.506276e+002
5.557662e+002, 2.504847e+002
5.562483e+002, 2.499693e+002
5.567304e+002, 2.499630e+002
5.572125e+002, 2.511633e+002
5.576946e+002, 2.524840e+002
5.581768e+002, 2.518750e+002
5.586589e+002, 2.494250e+002
5.591410e+002, 2.483383e+002
5.596231e+002, 2.500175e+002
5.601052e+002, 2.523815e+002
5.605873e+002, 2.531108e+002
5.610695e+002, 2.524135e+002
5.615516e+002, 2.515908e+002
5.620337e+002, 2.508441e+002
5.625158e+002, 2.500817e+002
5.629979e+002, 2.489041e+002
5.634800e+002, 2.476597e+002
5.639622e+002, 2.474952e+002
5.644443e+002, 2.489258e+002
5.649264e+002, 2.506690e+002
5.654085e+002, 2.504901e+002
5.658906e+002, 2.472597e+002
5.663727e+002, 2.457253e+002
5.668549e+002, 2.470248e+002
5.673370e+002, 2.485831e+002
5.678191e+002, 2.498607e+002
5.683012e+002, 2.505240e+002
5.687833e+002, 2.498823e+002
5.692654e+002, 2.475415e+002
5.697476e+002, 2.449118e+002
5.702297e+002, 2.444226e+002
5.707118e+002, 2.462191e+002
5.711939e+002, 2.475683e+002
5.716760e+002, 2.479706e+002
5.721581e+002, 2.480832e+002
5.726403e+002, 2.486321e+002
5.731224e+002, 2.492685e+002
5.736045e+002, 2.489823e+002
5.740866e+002, 2.465479e+002
5.745687e+002, 2.443792e+002
5.750508e+002, 2.446595e+002
5.755330e+002, 2.466588e+002
5.760151e+002, 2.486866e+002
5.764972e+002, 2.503547e+002
5.769793e+002, 2.512913e+002
5.774614e+002, 2.508699e+002
5.779435e+002, 2.488680e+002
5.784257e+002, 2.480826e+002
5.789078e+002, 2.493725e+002
5.793899e+002, 2.507042e+002
5.798720e+002, 2.519661e+002
5.803541e+002, 2.526660e+002
5.808362e+002, 2.518204e+002
5.813184e+002, 2.493093e+002
5.818005e+002, 2.467051e+002
5.822826e+002, 2.461150e+002
5.827647e+002, 2.475920e+002
5.832468e+002, 2.485105e+002
5.837289e+002, 2.485994e+002
5.842111e+002, 2.485673e+002
5.846932e+002, 2.487420e+002
5.851753e+002, 2.489725e+002
5.856574e+002, 2.490498e+002
5.861395e+002, 2.489092e+002
5.866216e+002, 2.487460e+002
5.871038e+002, 2.487279e+002
5.875859e+002, 2.487768e+002
5.880680e+002, 2.486615e+002
5.885501e+002, 2.483512e+002
5.890322e+002, 2.481585e+002
5.895143e+002, 2.482354e+002
5.899965e+002, 2.486320e+002
5.904786e+002, 2.496328e+002
5.909607e+002, 2.522378e+002
5.914428e+002, 2.540318e+002
5.919249e+002, 2.545061e+002
5.924070e+002, 2.541555e+002
5.928892e+002, 2.529879e+002
5.933713e+002, 2.513172e+002
5.938534e+002, 2.500923e+002
5.943355e+002, 2.501228e+002
5.948176e+002, 2.510816e+002
5.952997e+002, 2.515714e+002
5.957819e+002, 2.514563e+002
5.962640e+002, 2.512251e+002
5.967461e+002, 2.504331e+002
5.972282e+002, 2.499871e+002
5.977103e+002, 2.508616e+002
5.981924e+002, 2.528979e+002
5.986746e+002, 2.546228e+002
5.991567e+002, 2.549120e+002
5.996388e+002, 2.547470e+002
6.001209e+002, 2.554920e+002
6.006030e+002, 2.570311e+002
6.010851e+002, 2.585274e+002
6.015673e+002, 2.597507e+002
6.020494e+002, 2.604916e+002
6.025315e+002, 2.601842e+002
6.030136e+002, 2.580789e+002
6.034957e+002, 2.576840e+002
6.039778e+002, 2.611086e+002
6.044600e+002, 2.641079e+002
6.049421e+002, 2.642787e+002
6.054242e+002, 2.625580e+002
6.059063e+002, 2.606402e+002
6.063884e+002, 2.592294e+002
6.068705e+002, 2.584157e+002
6.073527e+002, 2.585832e+002
6.078348e+002, 2.599114e+002
6.083169e+002, 2.604388e+002
6.087990e+002, 2.593864e+002
6.092811e+002, 2.586074e+002
6.097632e+002, 2.595008e+002
6.102454e+002, 2.611120e+002
6.107275e+002, 2.619381e+002
6.112096e+002, 2.615847e+002
6.116917e+002, 2.606508e+002
6.121738e+002, 2.593474e+002
6.126559e+002, 2.577976e+002
6.131381e+002, 2.560465e+002
6.136202e+002, 2.541161e+002
6.141023e+002, 2.527056e+002
6.145844e+002, 2.524801e+002
6.150665e+002, 2.531556e+002
6.155486e+002, 2.530977e+002
6.160308e+002, 2.515387e+002
6.165129e+002, 2.502774e+002
6.169950e+002, 2.495580e+002
6.174771e+002, 2.490876e+002
6.179592e+002, 2.487478e+002
6.184413e+002, 2.484478e+002
6.189235e+002, 2.480354e+002
6.194056e+002, 2.474241e+002
6.198877e+002, 2.466040e+002
6.203698e+002, 2.453136e+002
6.208519e+002, 2.433258e+002
6.213340e+002, 2.423401e+002
6.218162e+002, 2.436705e+002
6.222983e+002, 2.451558e+002
6.227804e+002, 2.445634e+002
6.232625e+002, 2.422215e+002
6.237446e+002, 2.402366e+002
6.242267e+002, 2.394364e+002
6.247089e+002, 2.389570e+002
6.251910e+002, 2.383621e+002
6.256731e+002, 2.375847e+002
6.261552e+002, 2.362752e+002
6.266373e+002, 2.343354e+002
6.271194e+002, 2.326465e+002
6.276016e+002, 2.324811e+002
6.280837e+002, 2.341313e+002
6.285658e+002, 2.340869e+002
6.290479e+002, 2.298337e+002
6.295300e+002, 2.267760e+002
6.300121e+002, 2.265737e+002
6.304943e+002, 2.277626e+002
6.309764e+002, 2.289070e+002
6.314585e+002, 2.296599e+002
6.319406e+002, 2.302064e+002
6.324227e+002, 2.308329e+002
6.329048e+002, 2.313661e+002
6.333870e+002, 2.310833e+002
6.338691e+002, 2.298641e+002
6.343512e+002, 2.289960e+002
6.348333e+002, 2.294023e+002
6.353154e+002, 2.301779e+002
6.357975e+002, 2.294654e+002
6.362797e+002, 2.270060e+002
6.367618e+002, 2.247509e+002
6.372439e+002, 2.226273e+002
6.377260e+002, 2.211431e+002
6.382081e+002, 2.211262e+002
6.386902e+002, 2.220067e+002
6.391724e+002, 2.224880e+002
6.396545e+002, 2.219872e+002
6.401366e+002, 2.210164e+002
6.406187e+002, 2.203621e+002
6.411008e+002, 2.200553e+002
6.415829e+002, 2.199478e+002
6.420651e+002, 2.203831e+002
6.425472e+002, 2.205327e+002
6.430293e+002, 2.198352e+002
6.435114e+002, 2.187302e+002
6.439935e+002, 2.177849e+002
6.444756e+002, 2.170598e+002
6.449578e+002, 2.167912e+002
6.454398e+002, 2.177390e+002
6.459219e+002, 2.190209e+002
6.464041e+002, 2.190926e+002
6.468862e+002, 2.178265e+002
6.473683e+002, 2.156755e+002
6.478504e+002, 2.126539e+002
6.483325e+002, 2.093984e+002
6.488146e+002, 2.079609e+002
6.492968e+002, 2.097112e+002
6.497789e+002, 2.110813e+002
6.502610e+002, 2.120766e+002
6.507431e+002, 2.127143e+002
6.512252e+002, 2.131725e+002
6.517073e+002, 2.132580e+002
6.521895e+002, 2.123117e+002
6.526716e+002, 2.098060e+002
6.531537e+002, 2.072607e+002
6.536358e+002, 2.073474e+002
6.541179e+002, 2.097594e+002
6.546000e+002, 2.106458e+002
6.550822e+002, 2.090532e+002
6.555643e+002, 2.071738e+002
6.560464e+002, 2.068920e+002
6.565285e+002, 2.076185e+002
6.570106e+002, 2.068902e+002
6.574927e+002, 2.030658e+002
6.579749e+002, 2.004450e+002
6.584570e+002, 2.010707e+002
6.589391e+002, 2.028961e+002
6.594212e+002, 2.040138e+002
6.599033e+002, 2.042607e+002
6.603854e+002, 2.043271e+002
6.608676e+002, 2.046794e+002
6.613497e+002, 2.051408e+002
6.618318e+002, 2.052394e+002
6.623139e+002, 2.049887e+002
6.627960e+002, 2.042970e+002
6.632781e+002, 2.027976e+002
6.637603e+002, 2.012373e+002
6.642424e+002, 1.998462e+002
6.647245e+002, 1.987729e+002
6.652066e+002, 1.985057e+002
6.656887e+002, 1.998547e+002
6.661708e+002, 2.008588e+002
6.666530e+002, 1.995961e+002
6.671351e+002, 1.971884e+002
6.676172e+002, 1.958342e+002
6.680993e+002, 1.958457e+002
6.685814e+002, 1.958325e+002
6.690635e+002, 1.945527e+002
6.695457e+002, 1.924353e+002
6.700278e+002, 1.919374e+002
6.705099e+002, 1.946905e+002
6.709920e+002, 1.963394e+002
6.714741e+002, 1.956038e+002
6.719562e+002, 1.946171e+002
6.724384e+002, 1.947477e+002
6.729205e+002, 1.958195e+002
6.734026e+002, 1.970744e+002
6.738847e+002, 1.984320e+002
6.743668e+002, 1.992285e+002
6.748489e+002, 1.978700e+002
6.753311e+002, 1.950444e+002
6.758132e+002, 1.942554e+002
6.762953e+002, 1.964516e+002
6.767774e+002, 1.990182e+002
6.772595e+002, 1.996799e+002
6.777416e+002, 1.987139e+002
6.782238e+002, 1.984053e+002
6.787059e+002, 1.996585e+002
6.791880e+002, 2.002698e+002
6.796701e+002, 1.991873e+002
6.801522e+002, 1.979397e+002
6.806343e+002, 1.980255e+002
6.811165e+002, 1.991722e+002
6.815986e+002, 1.998866e+002
6.820807e+002, 1.991008e+002
6.825628e+002, 1.977743e+002
6.830449e+002, 1.979077e+002
6.835270e+002, 1.994886e+002
6.840092e+002, 2.004693e+002
6.844913e+002, 2.001390e+002
6.849734e+002, 1.999277e+002
6.854555e+002, 2.015231e+002
6.859376e+002, 2.043075e+002
6.864197e+002, 2.053204e+002
6.869019e+002, 2.029835e+002
6.873840e+002, 2.009821e+002
6.878661e+002, 2.004340e+002
6.883482e+002, 2.006888e+002
6.888303e+002, 2.012381e+002
6.893124e+002, 2.019577e+002
6.897946e+002, 2.029632e+002
6.902767e+002, 2.044518e+002
6.907588e+002, 2.058055e+002
6.912409e+002, 2.052279e+002
6.917230e+002, 2.023076e+002
6.922051e+002, 1.999958e+002
6.926873e+002, 1.984170e+002
6.931694e+002, 1.979288e+002
6.936515e+002, 1.998354e+002
6.941336e+002, 2.029268e+002
6.946157e+002, 2.042271e+002
6.950978e+002, 2.023652e+002
6.955800e+002, 2.004430e+002
6.960621e+002, 2.000627e+002
6.965442e+002, 2.003178e+002
6.970263e+002, 2.000482e+002
6.975084e+002, 1.992455e+002
6.979905e+002, 1.986669e+002
6.984727e+002, 1.988206e+002
6.989548e+002, 1.993963e+002
6.994369e+002, 1.995960e+002
6.999190e+002, 1.993170e+002
7.004011e+002, 1.990299e+002
7.008832e+002, 1.989010e+002
7.013654e+002, 1.986006e+002
7.018475e+002, 1.979023e+002
7.023296e+002, 1.969424e+002
7.028117e+002, 1.958859e+002
7.032938e+002, 1.946001e+002
7.037759e+002, 1.937570e+002
7.042581e+002, 1.943531e+002
7.047402e+002, 1.953017e+002
7.052223e+002, 1.946082e+002
7.057044e+002, 1.925157e+002
7.061865e+002, 1.914541e+002
7.066686e+002, 1.929126e+002
7.071508e+002, 1.956347e+002
7.076329e+002, 1.967640e+002
7.081150e+002, 1.957489e+002
7.085971e+002, 1.947692e+002
7.090792e+002, 1.938096e+002
7.095613e+002, 1.929073e+002
7.100435e+002, 1.918073e+002
7.105256e+002, 1.908787e+002
7.110077e+002, 1.907722e+002
7.114898e+002, 1.917145e+002
7.119719e+002, 1.927181e+002
7.124540e+002, 1.932985e+002
7.129362e+002, 1.934776e+002
7.134183e+002, 1.929663e+002
7.139004e+002, 1.919666e+002
7.143825e+002, 1.916223e+002
7.148646e+002, 1.925424e+002
7.153467e+002, 1.939300e+002
7.158289e+002, 1.944182e+002
7.163110e+002, 1.938636e+002
7.167931e+002, 1.930724e+002
7.172752e+002, 1.912876e+002
7.177573e+002, 1.902032e+002
7.182394e+002, 1.906641e+002
7.187216e+002, 1.918523e+002
7.192037e+002, 1.929182e+002
7.196858e+002, 1.937029e+002
7.201679e+002, 1.943322e+002
7.206500e+002, 1.950692e+002
7.211321e+002, 1.955780e+002
7.216143e+002, 1.951000e+002
7.220964e+002, 1.939035e+002
7.225785e+002, 1.932839e+002
7.230606e+002, 1.937326e+002
7.235427e+002, 1.945317e+002
7.240248e+002, 1.947940e+002
7.245070e+002, 1.944969e+002
7.249891e+002, 1.940475e+002
7.254712e+002, 1.929433e+002
7.259533e+002, 1.923907e+002
7.264354e+002, 1.928670e+002
7.269175e+002, 1.937710e+002
7.273997e+002, 1.948117e+002
7.278818e+002, 1.958387e+002
7.283639e+002, 1.963824e+002
7.288460e+002, 1.955993e+002
7.293281e+002, 1.948083e+002
7.298102e+002, 1.959791e+002
7.302924e+002, 1.983745e+002
7.307745e+002, 1.996256e+002
7.312566e+002, 1.991711e+002
7.317387e+002, 1.983084e+002
7.322208e+002, 1.981701e+002
7.327029e+002, 1.986851e+002
7.331851e+002, 1.993523e+002
7.336672e+002, 2.007491e+002
7.341493e+002, 2.012760e+002
7.346314e+002, 1.996980e+002
7.351135e+002, 1.982537e+002
7.355956e+002, 1.983758e+002
7.360778e+002, 1.997760e+002
7.365599e+002, 2.014840e+002
7.370420e+002, 2.032873e+002
7.375241e+002, 2.049666e+002
7.380062e+002, 2.067412e+002
7.384883e+002, 2.081281e+002
7.389705e+002, 2.076733e+002
7.394526e+002, 2.054395e+002
7.399347e+002, 2.037540e+002
7.404168e+002, 2.041866e+002
7.408989e+002, 2.059126e+002
7.413810e+002, 2.067954e+002
7.418632e+002, 2.065064e+002
7.423453e+002, 2.062071e+002
7.428274e+002, 2.053802e+002
7.433095e+002, 2.051399e+002
7.437916e+002, 2.067140e+002
7.442737e+002, 2.088223e+002
7.447559e+002, 2.093125e+002
7.452380e+002, 2.075591e+002
7.457201e+002, 2.060925e+002
7.462022e+002, 2.068507e+002
7.466843e+002, 2.084079e+002
7.471664e+002, 2.091048e+002
7.476486e+002, 2.089872e+002
7.481307e+002, 2.086187e+002
7.486128e+002, 2.082194e+002
7.490949e+002, 2.078006e+002
7.495770e+002, 2.072972e+002
7.500591e+002, 2.066651e+002
7.505413e+002, 2.069063e+002
7.510234e+002, 2.091077e+002
7.515055e+002, 2.102580e+002
7.519876e+002, 2.084576e+002
7.524697e+002, 2.059805e+002
7.529518e+002, 2.047260e+002
7.534340e+002, 2.046989e+002
7.539161e+002, 2.047942e+002
7.543982e+002, 2.046307e+002
7.548803e+002, 2.044567e+002
7.553624e+002, 2.042727e+002
7.558445e+002, 2.042615e+002
7.563267e+002, 2.052840e+002
7.568088e+002, 2.071868e+002
7.572909e+002, 2.077337e+002
7.577730e+002, 2.047494e+002
7.582551e+002, 1.997186e+002
7.587372e+002, 1.983362e+002
7.592194e+002, 2.019019e+002
7.597015e+002, 2.033243e+002
7.601836e+002, 2.000256e+002
7.606657e+002, 1.965029e+002
7.611478e+002, 1.961508e+002
7.616299e+002, 1.978383e+002
7.621121e+002, 1.992355e+002
7.625942e+002, 2.002597e+002
7.630763e+002, 2.005868e+002
7.635584e+002, 1.998732e+002
7.640405e+002, 1.985977e+002
7.645226e+002, 1.969338e+002
7.650048e+002, 1.951002e+002
7.654869e+002, 1.933799e+002
7.659690e+002, 1.919101e+002
7.664511e+002, 1.909719e+002
7.669332e+002, 1.912654e+002
7.674153e+002, 1.926630e+002
7.678975e+002, 1.934409e+002
7.683795e+002, 1.936434e+002
7.688616e+002, 1.928163e+002
7.693438e+002, 1.901991e+002
7.698259e+002, 1.870435e+002
7.703080e+002, 1.851715e+002
7.707901e+002, 1.846181e+002
7.712722e+002, 1.847063e+002
7.717543e+002, 1.862551e+002
7.722365e+002, 1.874297e+002
7.727186e+002, 1.874973e+002
7.732007e+002, 1.868098e+002
7.736828e+002, 1.855773e+002
7.741649e+002, 1.839903e+002
7.746470e+002, 1.824671e+002
7.751292e+002, 1.811582e+002
7.756113e+002, 1.803117e+002
7.760934e+002, 1.807328e+002
7.765755e+002, 1.821853e+002
7.770576e+002, 1.827870e+002
7.775397e+002, 1.820346e+002
7.780219e+002, 1.815021e+002
7.785040e+002, 1.827202e+002
7.789861e+002, 1.849874e+002
7.794682e+002, 1.852915e+002
7.799503e+002, 1.822911e+002
7.804324e+002, 1.793979e+002
7.809146e+002, 1.754991e+002
7.813967e+002, 1.728322e+002
7.818788e+002, 1.736776e+002
7.823609e+002, 1.761794e+002
7.828430e+002, 1.769226e+002
7.833251e+002, 1.748211e+002
7.838073e+002, 1.727531e+002
7.842894e+002, 1.732290e+002
7.847715e+002, 1.747604e+002
7.852536e+002, 1.751740e+002
7.857357e+002, 1.745585e+002
7.862178e+002, 1.738237e+002
7.867000e+002, 1.733146e+002
7.871821e+002, 1.727879e+002
7.876642e+002, 1.719225e+002
7.881463e+002, 1.707278e+002
7.886284e+002, 1.694497e+002
7.891105e+002, 1.677184e+002
7.895927e+002, 1.666828e+002
7.900748e+002, 1.670950e+002
7.905569e+002, 1.679068e+002
7.910390e+002, 1.683515e+002
7.915211e+002, 1.684868e+002
7.920032e+002, 1.686934e+002
7.924854e+002, 1.693293e+002
7.929675e+002, 1.696680e+002
7.934496e+002, 1.691851e+002
7.939317e+002, 1.683267e+002
7.944138e+002, 1.674914e+002
7.948959e+002, 1.667779e+002
7.953781e+002, 1.662747e+002
7.958602e+002, 1.660372e+002
7.963423e+002, 1.659406e+002
7.968244e+002, 1.658784e+002
7.973065e+002, 1.658281e+002
7.977886e+002, 1.653924e+002
7.982708e+002, 1.645255e+002
7.987529e+002, 1.633178e+002
7.992350e+002, 1.615815e+002
7.997171e+002, 1.597728e+002
8.001992e+002, 1.586728e+002
8.006813e+002, 1.584150e+002
8.011635e+002, 1.583134e+002
8.016456e+002, 1.587569e+002
8.021277e+002, 1.588848e+002
8.026098e+002, 1.579829e+002
8.030919e+002, 1.568912e+002
8.035740e+002, 1.567599e+002
8.040562e+002, 1.574873e+002
8.045383e+002, 1.576952e+002
8.050204e+002, 1.560505e+002
8.055025e+002, 1.542455e+002
8.059846e+002, 1.548332e+002
8.064667e+002, 1.569715e+002
8.069489e+002, 1.582445e+002
8.074310e+002, 1.582536e+002
8.079131e+002, 1.575748e+002
8.083952e+002, 1.565273e+002
8.088773e+002, 1.552706e+002
8.093594e+002, 1.541920e+002
8.098416e+002, 1.531215e+002
8.103237e+002, 1.527665e+002
8.108058e+002, 1.536534e+002
8.112879e+002, 1.545588e+002
8.117700e+002, 1.551775e+002
8.122521e+002, 1.554072e+002
8.127343e+002, 1.548748e+002
8.132164e+002, 1.534678e+002
8.136985e+002, 1.525840e+002
8.141806e+002, 1.534878e+002
8.146627e+002, 1.542389e+002
8.151448e+002, 1.529481e+002
8.156270e+002, 1.508584e+002
8.161091e+002, 1.501105e+002
8.165912e+002, 1.509822e+002
8.170733e+002, 1.520899e+002
8.175554e+002, 1.524106e+002
8.180375e+002, 1.521436e+002
8.185197e+002, 1.516121e+002
8.190018e+002, 1.508358e+002
8.194839e+002, 1.504176e+002
8.199660e+002, 1.505840e+002
8.204481e+002, 1.504778e+002
8.209302e+002, 1.493776e+002
8.214124e+002, 1.476782e+002
8.218945e+002, 1.465670e+002
8.223766e+002, 1.464340e+002
8.228587e+002, 1.460403e+002
8.233408e+002, 1.449845e+002
8.238229e+002, 1.441357e+002
8.243051e+002, 1.438987e+002
8.247872e+002, 1.440432e+002
8.252693e+002, 1.443879e+002
8.257514e+002, 1.448649e+002
8.262335e+002, 1.450989e+002
8.267156e+002, 1.442469e+002
8.271978e+002, 1.436020e+002
8.276799e+002, 1.452463e+002
8.281620e+002, 1.479401e+002
8.286441e+002, 1.485473e+002
8.291262e+002, 1.466831e+002
8.296083e+002, 1.450692e+002
8.300905e+002, 1.459633e+002
8.305726e+002, 1.482448e+002
8.310547e+002, 1.485413e+002
8.315368e+002, 1.465613e+002
8.320189e+002, 1.451370e+002
8.325010e+002, 1.447392e+002
8.329832e+002, 1.444434e+002
8.334653e+002, 1.435473e+002
8.339474e+002, 1.424831e+002
8.344295e+002, 1.424136e+002
8.349116e+002, 1.438706e+002
8.353937e+002, 1.440942e+002
8.358759e+002, 1.411528e+002
8.363580e+002, 1.388904e+002
8.368401e+002, 1.396491e+002
8.373222e+002, 1.416160e+002
8.378043e+002, 1.426310e+002
8.382864e+002, 1.424117e+002
8.387686e+002, 1.419650e+002
8.392507e+002, 1.420235e+002
8.397328e+002, 1.419754e+002
8.402149e+002, 1.406664e+002
8.406970e+002, 1.387373e+002
8.411791e+002, 1.378513e+002
8.416613e+002, 1.382194e+002
8.421434e+002, 1.392646e+002
8.426255e+002, 1.407250e+002
8.431076e+002, 1.421382e+002
8.435897e+002, 1.423287e+002
8.440718e+002, 1.410283e+002
8.445540e+002, 1.402510e+002
8.450361e+002, 1.404637e+002
8.455182e+002, 1.401987e+002
8.460003e+002, 1.381338e+002
8.464824e+002, 1.358158e+002
8.469645e+002, 1.357080e+002
8.474467e+002, 1.378813e+002
8.479288e+002, 1.389095e+002
8.484109e+002, 1.375949e+002
8.488930e+002, 1.361011e+002
8.493751e+002, 1.348671e+002
8.498572e+002, 1.340175e+002
8.503394e+002, 1.338542e+002
8.508215e+002, 1.341766e+002
8.513036e+002, 1.342607e+002
8.517857e+002, 1.336253e+002
8.522678e+002, 1.331738e+002
8.527499e+002, 1.342830e+002
8.532321e+002, 1.361444e+002
8.537142e+002, 1.369576e+002
8.541963e+002, 1.366989e+002
8.546784e+002, 1.362447e+002
8.551605e+002, 1.359843e+002
8.556426e+002, 1.356211e+002
8.561248e+002, 1.345891e+002
8.566069e+002, 1.329312e+002
8.570890e+002, 1.325349e+002
8.575711e+002, 1.340238e+002
8.580532e+002, 1.349079e+002
8.585353e+002, 1.342204e+002
8.590175e+002, 1.331673e+002
8.594996e+002, 1.327995e+002
8.599817e+002, 1.329642e+002
8.604638e+002, 1.330031e+002
8.609459e+002, 1.327024e+002
8.614280e+002, 1.325941e+002
8.619102e+002, 1.332165e+002
8.623923e+002, 1.336327e+002
8.628744e+002, 1.327694e+002
8.633565e+002, 1.314045e+002
8.638386e+002, 1.311054e+002
8.643207e+002, 1.322705e+002
8.648029e+002, 1.334051e+002
8.652850e+002, 1.332817e+002
8.657671e+002, 1.325454e+002
8.662492e+002, 1.320061e+002
8.667313e+002, 1.316156e+002
8.672134e+002, 1.310393e+002
8.676956e+002, 1.302577e+002
8.681777e+002, 1.299769e+002
8.686598e+002, 1.308757e+002
8.691419e+002, 1.324180e+002
8.696240e+002, 1.330727e+002
8.701061e+002, 1.327673e+002
8.705883e+002, 1.320726e+002
8.710704e+002, 1.308143e+002
8.715525e+002, 1.297688e+002
8.720346e+002, 1.293899e+002
8.725167e+002, 1.294215e+002
8.729988e+002, 1.294145e+002
8.734810e+002, 1.293396e+002
8.739631e+002, 1.293734e+002
8.744452e+002, 1.300109e+002
8.749273e+002, 1.301305e+002
8.754094e+002, 1.287609e+002
8.758915e+002, 1.272263e+002
8.763737e+002, 1.268422e+002
8.768558e+002, 1.274595e+002
8.773379e+002, 1.280620e+002
8.778200e+002, 1.283041e+002
8.783021e+002, 1.283005e+002
8.787842e+002, 1.282737e+002
8.792664e+002, 1.279595e+002
8.797485e+002, 1.263968e+002
8.802306e+002, 1.242117e+002
8.807127e+002, 1.236888e+002
8.811948e+002, 1.256549e+002
8.816769e+002, 1.279860e+002
8.821591e+002, 1.279566e+002
8.826412e+002, 1.263032e+002
8.831233e+002, 1.264094e+002
8.836054e+002, 1.282977e+002
8.840875e+002, 1.293852e+002
8.845696e+002, 1.289476e+002
8.850518e+002, 1.280477e+002
8.855339e+002, 1.275215e+002
8.860160e+002, 1.272661e+002
8.864981e+002, 1.268773e+002
8.869802e+002, 1.263457e+002
8.874623e+002, 1.256863e+002
8.879445e+002, 1.242103e+002
8.884266e+002, 1.234558e+002
8.889087e+002, 1.246766e+002
8.893908e+002, 1.265329e+002
8.898729e+002, 1.272416e+002
8.903550e+002, 1.266731e+002
8.908372e+002, 1.263765e+002
8.913193e+002, 1.271906e+002
8.918014e+002, 1.278678e+002
8.922834e+002, 1.278375e+002
8.927656e+002, 1.273295e+002
8.932477e+002, 1.262387e+002
8.937298e+002, 1.249113e+002
8.942119e+002, 1.244221e+002
8.946940e+002, 1.254014e+002
8.951761e+002, 1.264105e+002
8.956583e+002, 1.253715e+002
8.961404e+002, 1.234761e+002
8.966225e+002, 1.235220e+002
8.971046e+002, 1.251948e+002
8.975867e+002, 1.260586e+002
8.980688e+002, 1.252896e+002
8.985510e+002, 1.241859e+002
8.990331e+002, 1.241926e+002
8.995152e+002, 1.249555e+002
8.999973e+002, 1.244868e+002
9.004794e+002, 1.224126e+002
9.009615e+002, 1.216627e+002
9.014437e+002, 1.232395e+002
9.019258e+002, 1.247094e+002
9.024079e+002, 1.242775e+002
9.028900e+002, 1.228890e+002
9.033721e+002, 1.227842e+002
9.038542e+002, 1.245775e+002
9.043364e+002, 1.256418e+002
9.048185e+002, 1.257264e+002
9.053006e+002, 1.254301e+002
9.057827e+002, 1.250442e+002
9.062648e+002, 1.242619e+002
9.067469e+002, 1.219941e+002
9.072291e+002, 1.188772e+002
9.077112e+002, 1.179678e+002
9.081933e+002, 1.216992e+002
9.086754e+002, 1.249243e+002
9.091575e+002, 1.244402e+002
9.096396e+002, 1.225402e+002
9.101218e+002, 1.208571e+002
9.106039e+002, 1.198277e+002
9.110860e+002, 1.201220e+002
9.115681e+002, 1.218517e+002
9.120502e+002, 1.235941e+002
9.125323e+002, 1.241135e+002
9.130145e+002, 1.237260e+002
9.134966e+002, 1.226432e+002
9.139787e+002, 1.211418e+002
9.144608e+002, 1.205296e+002
9.149429e+002, 1.210115e+002
9.154250e+002, 1.214354e+002
9.159072e+002, 1.209866e+002
9.163893e+002, 1.200913e+002
9.168714e+002, 1.196856e+002
9.173535e+002, 1.198063e+002
9.178356e+002, 1.200849e+002
9.183177e+002, 1.206437e+002
9.187999e+002, 1.208670e+002
9.192820e+002, 1.203165e+002
9.197641e+002, 1.196685e+002
9.202462e+002, 1.197463e+002
9.207283e+002, 1.205049e+002
9.212104e+002, 1.209996e+002
9.216926e+002, 1.212223e+002
9.221747e+002, 1.211789e+002
9.226568e+002, 1.206282e+002
9.231389e+002, 1.200645e+002
9.236210e+002, 1.197585e+002
9.241031e+002, 1.196090e+002
9.245853e+002, 1.193990e+002
9.250674e+002, 1.190826e+002
9.255495e+002, 1.189476e+002
9.260316e+002, 1.192628e+002
9.265137e+002, 1.195996e+002
9.269958e+002, 1.197927e+002
9.274780e+002, 1.198086e+002
9.279601e+002, 1.195609e+002
9.284422e+002, 1.191002e+002
9.289243e+002, 1.186030e+002
9.294064e+002, 1.181469e+002
9.298885e+002, 1.177307e+002
9.303707e+002, 1.173149e+002
9.308528e+002, 1.169570e+002
9.313349e+002, 1.167347e+002
9.318170e+002, 1.166629e+002
9.322991e+002, 1.169134e+002
9.327813e+002, 1.174942e+002
9.332634e+002, 1.177490e+002
9.337455e+002, 1.168883e+002
9.342276e+002, 1.155117e+002
9.347097e+002, 1.155769e+002
9.351918e+002, 1.170515e+002
9.356740e+002, 1.181712e+002
9.361561e+002, 1.187420e+002
9.366382e+002, 1.187204e+002
9.371203e+002, 1.179346e+002
9.376024e+002, 1.168869e+002
9.380845e+002, 1.163709e+002
9.385667e+002, 1.164022e+002
9.390488e+002, 1.168849e+002
9.395309e+002, 1.183300e+002
9.400130e+002, 1.191496e+002
9.404951e+002, 1.184995e+002
9.409772e+002, 1.177022e+002
9.414594e+002, 1.181954e+002
9.419415e+002, 1.192721e+002
9.424236e+002, 1.188656e+002
9.429057e+002, 1.161067e+002
9.433878e+002, 1.140667e+002
9.438699e+002, 1.127676e+002
9.443521e+002, 1.126803e+002
9.448342e+002, 1.153596e+002
9.453163e+002, 1.184602e+002
9.457984e+002, 1.190315e+002
9.462805e+002, 1.172582e+002
9.467626e+002, 1.159762e+002
9.472448e+002, 1.166292e+002
9.477269e+002, 1.173212e+002
9.482090e+002, 1.167294e+002
9.486911e+002, 1.157457e+002
9.491732e+002, 1.154268e+002
9.496553e+002, 1.154713e+002
9.501375e+002, 1.147716e+002
9.506196e+002, 1.131238e+002
9.511017e+002, 1.120453e+002
9.515838e+002, 1.130862e+002
9.520659e+002, 1.151165e+002
9.525480e+002, 1.168846e+002
9.530302e+002, 1.181407e+002
9.535123e+002, 1.178411e+002
9.539944e+002, 1.160823e+002
9.544765e+002, 1.143726e+002
9.549586e+002, 1.135107e+002
9.554407e+002, 1.133476e+002
9.559229e+002, 1.139794e+002
9.564050e+002, 1.151928e+002
9.568871e+002, 1.150491e+002
9.573692e+002, 1.134740e+002
9.578513e+002, 1.129980e+002
9.583334e+002, 1.144509e+002
9.588156e+002, 1.160845e+002
9.592977e+002, 1.165721e+002
9.597798e+002, 1.161178e+002
9.602619e+002, 1.152371e+002
9.607440e+002, 1.136976e+002
9.612261e+002, 1.126338e+002
9.617083e+002, 1.122164e+002
9.621904e+002, 1.119023e+002
9.626725e+002, 1.114177e+002
9.631546e+002, 1.110409e+002
9.636367e+002, 1.110480e+002
9.641188e+002, 1.114312e+002
9.646010e+002, 1.121063e+002
9.650831e+002, 1.134544e+002
9.655652e+002, 1.145038e+002
9.660473e+002, 1.155812e+002
9.665294e+002, 1.159270e+002
9.670115e+002, 1.143578e+002
9.674937e+002, 1.122682e+002
9.679758e+002, 1.116679e+002
9.684579e+002, 1.127255e+002
9.689400e+002, 1.138561e+002
9.694221e+002, 1.151116e+002
9.699042e+002, 1.157218e+002
9.703864e+002, 1.148400e+002
9.708685e+002, 1.136237e+002
9.713506e+002, 1.129560e+002
9.718327e+002, 1.128479e+002
9.723148e+002, 1.132713e+002
9.727969e+002, 1.142187e+002
9.732791e+002, 1.147727e+002
9.737612e+002, 1.141280e+002
9.742433e+002, 1.130089e+002
9.747254e+002, 1.118232e+002
9.752075e+002, 1.107811e+002
9.756896e+002, 1.102530e+002
9.761718e+002, 1.102088e+002
9.766539e+002, 1.102672e+002
9.771360e+002, 1.102163e+002
9.776181e+002, 1.104319e+002
9.781002e+002, 1.119049e+002
9.785823e+002, 1.137163e+002
9.790645e+002, 1.135322e+002
9.795466e+002, 1.118482e+002
9.800287e+002, 1.109162e+002
9.805108e+002, 1.112307e+002
9.809929e+002, 1.115963e+002
9.814750e+002, 1.111034e+002
9.819572e+002, 1.102249e+002
9.824393e+002, 1.099688e+002
9.829214e+002, 1.102654e+002
9.834035e+002, 1.104126e+002
9.838856e+002, 1.103762e+002
9.843677e+002, 1.104801e+002
9.848499e+002, 1.108974e+002
9.853320e+002, 1.110419e+002
9.858141e+002, 1.102420e+002
9.862962e+002, 1.087754e+002
9.867783e+002, 1.078260e+002
9.872604e+002, 1.074438e+002
9.877426e+002, 1.073745e+002
9.882247e+002, 1.077222e+002
9.887068e+002, 1.080116e+002
9.891889e+002, 1.079869e+002
9.896710e+002, 1.078621e+002
9.901531e+002, 1.078144e+002
9.906353e+002, 1.078628e+002
9.911174e+002, 1.086943e+002
9.915995e+002, 1.115313e+002
9.920816e+002, 1.127308e+002
9.925637e+002, 1.105682e+002
9.930458e+002, 1.084750e+002
9.935280e+002, 1.084624e+002
9.940101e+002, 1.094296e+002
9.944922e+002, 1.098246e+002
9.949743e+002, 1.096122e+002
9.954564e+002, 1.091281e+002
9.959385e+002, 1.079967e+002
9.964207e+002, 1.071514e+002
9.969028e+002, 1.066644e+002
9.973849e+002, 1.066382e+002
9.978670e+002, 1.076533e+002
9.983491e+002, 1.089943e+002
9.988312e+002, 1.091658e+002
9.993134e+002, 1.078058e+002
9.997955e+002, 1.069901e+002
1.000278e+003, 1.079512e+002
1.000760e+003, 1.088316e+002
1.001242e+003, 1.086512e+002
1.001724e+003, 1.081039e+002
1.002206e+003, 1.077133e+002
1.002688e+003, 1.075824e+002
1.003170e+003, 1.078061e+002
1.003652e+003, 1.084452e+002
1.004135e+003, 1.090780e+002
1.004617e+003, 1.098360e+002
1.005099e+003, 1.101089e+002
1.005581e+003, 1.087817e+002
1.006063e+003, 1.070304e+002
1.006545e+003, 1.065614e+002
1.007027e+003, 1.073283e+002
1.007509e+003, 1.083239e+002
1.007991e+003, 1.091530e+002
1.008474e+003, 1.095992e+002
1.008956e+003, 1.094094e+002
1.009438e+003, 1.087616e+002
1.009920e+003, 1.072818e+002
1.010402e+003, 1.057206e+002
1.010884e+003, 1.062108e+002
1.011366e+003, 1.085771e+002
1.011848e+003, 1.098325e+002
1.012331e+003, 1.080795e+002
1.012813e+003, 1.055615e+002
1.013295e+003, 1.051824e+002
1.013777e+003, 1.061371e+002
1.014259e+003, 1.068016e+002
1.014741e+003, 1.071578e+002
1.015223e+003, 1.074743e+002
1.015705e+003, 1.077943e+002
1.016187e+003, 1.078221e+002
1.016669e+003, 1.073094e+002
1.017152e+003, 1.065594e+002
1.017634e+003, 1.061410e+002
1.018116e+003, 1.059664e+002
1.018598e+003, 1.056355e+002
1.019080e+003, 1.051463e+002
1.019562e+003, 1.045366e+002
1.020044e+003, 1.038214e+002
1.020526e+003, 1.035300e+002
1.021009e+003, 1.041780e+002
1.021491e+003, 1.053884e+002
1.021973e+003, 1.062934e+002
1.022455e+003, 1.068898e+002
1.022937e+003, 1.071339e+002
1.023419e+003, 1.070278e+002
1.023901e+003, 1.063912e+002
1.024383e+003, 1.051092e+002
1.024865e+003, 1.035367e+002
1.025348e+003, 1.018540e+002
1.025830e+003, 1.003646e+002
1.026312e+003, 1.003323e+002
1.026794e+003, 1.019911e+002
1.027276e+003, 1.031923e+002
1.027758e+003, 1.037381e+002
1.028240e+003, 1.042792e+002
1.028722e+003, 1.050782e+002
1.029205e+003, 1.059288e+002
1.029687e+003, 1.067310e+002
1.030169e+003, 1.073554e+002
1.030651e+003, 1.070475e+002
1.031133e+003, 1.054776e+002
1.031615e+003, 1.041005e+002
1.032097e+003, 1.027807e+002
1.032579e+003, 1.021953e+002
1.033062e+003, 1.029535e+002
1.033544e+003, 1.040265e+002
1.034026e+003, 1.041721e+002
1.034508e+003, 1.035955e+002
1.034990e+003, 1.038223e+002
1.035472e+003, 1.053886e+002
1.035954e+003, 1.065540e+002
1.036436e+003, 1.073934e+002
1.036918e+003, 1.076090e+002
1.037401e+003, 1.067789e+002
1.037883e+003, 1.055542e+002
1.038365e+003, 1.045315e+002
1.038847e+003, 1.037299e+002
1.039329e+003, 1.033634e+002
1.039811e+003, 1.038683e+002
1.040293e+003, 1.040596e+002
1.040775e+003, 1.033924e+002
1.041257e+003, 1.030614e+002
1.041740e+003, 1.040142e+002
1.042222e+003, 1.051691e+002
1.042704e+003, 1.052266e+002
1.043186e+003, 1.043134e+002
1.043668e+003, 1.036941e+002
1.044150e+003, 1.037706e+002
1.044632e+003, 1.035789e+002
1.045114e+003, 1.027450e+002
1.045597e+003, 1.020070e+002
1.046079e+003, 1.015378e+002
1.046561e+003, 1.014191e+002
1.047043e+003, 1.021149e+002
1.047525e+003, 1.034066e+002
1.048007e+003, 1.035709e+002
1.048489e+003, 1.010291e+002
1.048971e+003, 9.975363e+001
1.049453e+003, 1.015390e+002
1.049936e+003, 1.033093e+002
1.050418e+003, 1.031599e+002
1.050900e+003, 1.024981e+002
1.051382e+003, 1.031460e+002
1.051864e+003, 1.049683e+002
1.052346e+003, 1.063573e+002
1.052828e+003, 1.073689e+002
1.053310e+003, 1.072253e+002
1.053792e+003, 1.046129e+002
1.054275e+003, 1.020887e+002
1.054757e+003, 1.009223e+002
1.055239e+003, 1.006493e+002
1.055721e+003, 1.009450e+002
1.056203e+003, 1.015917e+002
1.056685e+003, 1.018442e+002
1.057167e+003, 1.012539e+002
1.057649e+003, 1.008618e+002
1.058132e+003, 1.009725e+002
1.058614e+003, 1.013757e+002
1.059096e+003, 1.024083e+002
1.059578e+003, 1.033570e+002
1.060060e+003, 1.034196e+002
1.060542e+003, 1.026095e+002
1.061024e+003, 1.012452e+002
1.061506e+003, 9.877630e+001
1.061989e+003, 9.752337e+001
1.062471e+003, 9.959325e+001
1.062953e+003, 1.017226e+002
1.063435e+003, 1.014771e+002
1.063917e+003, 1.005609e+002
1.064399e+003, 1.012381e+002
1.064881e+003, 1.032779e+002
1.065363e+003, 1.049120e+002
1.065845e+003, 1.057436e+002
1.066328e+003, 1.057458e+002
1.066810e+003, 1.041341e+002
1.067292e+003, 1.025679e+002
1.067774e+003, 1.026267e+002
1.068256e+003, 1.028702e+002
1.068738e+003, 1.009192e+002
1.069220e+003, 9.760205e+001
1.069702e+003, 9.637868e+001
1.070184e+003, 9.874992e+001
1.070667e+003, 1.008374e+002
1.071149e+003, 1.006103e+002
1.071631e+003, 9.993673e+001
1.072113e+003, 9.958504e+001
1.072595e+003, 9.966698e+001
1.073077e+003, 1.006272e+002
1.073559e+003, 1.020342e+002
1.074041e+003, 1.027117e+002
1.074524e+003, 1.022770e+002
1.075006e+003, 1.015236e+002
1.075488e+003, 1.005758e+002
1.075970e+003, 9.968501e+001
1.076452e+003, 9.892931e+001
1.076934e+003, 9.835870e+001
1.077416e+003, 9.788022e+001
1.077898e+003, 9.765311e+001
1.078380e+003, 9.825996e+001
1.078863e+003, 9.991933e+001
1.079345e+003, 1.009931e+002
1.079827e+003, 1.000455e+002
1.080309e+003, 9.916549e+001
1.080791e+003, 9.990043e+001
1.081273e+003, 1.009007e+002
1.081755e+003, 1.007819e+002
1.082237e+003, 9.990504e+001
1.082719e+003, 9.917586e+001
1.083202e+003, 9.880669e+001
1.083684e+003, 9.874031e+001
1.084166e+003, 9.883164e+001
1.084648e+003, 9.937422e+001
1.085130e+003, 1.013091e+002
1.085612e+003, 1.030225e+002
1.086094e+003, 1.026901e+002
1.086576e+003, 1.012960e+002
1.087058e+003, 1.006906e+002
1.087541e+003, 1.011722e+002
1.088023e+003, 1.018626e+002
1.088505e+003, 1.034636e+002
1.088987e+003, 1.036880e+002
1.089469e+003, 9.976216e+001
1.089951e+003, 9.592757e+001
1.090433e+003, 9.583230e+001
1.090915e+003, 9.768416e+001
1.091398e+003, 9.868767e+001
1.091880e+003, 9.851938e+001
1.092362e+003, 9.827776e+001
1.092844e+003, 9.830057e+001
1.093326e+003, 9.832753e+001
1.093808e+003, 9.844954e+001
1.094290e+003, 9.834096e+001
1.094772e+003, 9.734007e+001
1.095255e+003, 9.629113e+001
1.095737e+003, 9.653822e+001
1.096219e+003, 9.782527e+001
1.096701e+003, 9.841338e+001
1.097183e+003, 9.770642e+001
1.097665e+003, 9.673204e+001
1.098147e+003, 9.502963e+001
1.098629e+003, 9.406850e+001
1.099111e+003, 9.510552e+001
1.099594e+003, 9.682951e+001
1.100076e+003, 9.815906e+001
1.100558e+003, 9.895420e+001
1.101040e+003, 9.910339e+001
1.101522e+003, 9.841017e+001
1.102004e+003, 9.784040e+001
1.102486e+003, 9.747578e+001
1.102968e+003, 9.746456e+001
1.103450e+003, 9.820054e+001
1.103933e+003, 9.900482e+001
1.104415e+003, 9.952803e+001
1.104897e+003, 9.963446e+001
1.105379e+003, 9.881980e+001
1.105861e+003, 9.677670e+001
1.106343e+003, 9.598544e+001
1.106825e+003, 9.821877e+001
1.107307e+003, 9.978503e+001
1.107790e+003, 9.975365e+001
1.108272e+003, 9.885651e+001
1.108754e+003, 9.684560e+001
1.109236e+003, 9.461711e+001
1.109718e+003, 9.370095e+001
1.110200e+003, 9.419119e+001
1.110682e+003, 9.445766e+001
1.111164e+003, 9.429857e+001
1.111646e+003, 9.405638e+001
1.112129e+003, 9.354097e+001
1.112611e+003, 9.321114e+001
1.113093e+003, 9.351979e+001
1.113575e+003, 9.395410e+001
1.114057e+003, 9.368016e+001
1.114539e+003, 9.286082e+001
1.115021e+003, 9.297437e+001
1.115503e+003, 9.489362e+001
1.115985e+003, 9.607150e+001
1.116468e+003, 9.626131e+001
1.116950e+003, 9.605100e+001
1.117432e+003, 9.511105e+001
1.117914e+003, 9.447005e+001
1.118396e+003, 9.539310e+001
1.118878e+003, 9.724889e+001
1.119360e+003, 9.785496e+001
1.119842e+003, 9.685579e+001
1.120325e+003, 9.592471e+001
1.120807e+003, 9.469289e+001
1.121289e+003, 9.449133e+001
1.121771e+003, 9.618221e+001
1.122253e+003, 9.785228e+001
1.122735e+003, 9.813651e+001
1.123217e+003, 9.765260e+001
1.123699e+003, 9.773656e+001
1.124182e+003, 9.845604e+001
1.124664e+003, 9.746066e+001
1.125146e+003, 9.388892e+001
1.125628e+003, 9.251456e+001
1.126110e+003, 9.472208e+001
1.126592e+003, 9.659199e+001
1.127074e+003, 9.595686e+001
1.127556e+003, 9.456807e+001
1.128038e+003, 9.476875e+001
1.128521e+003, 9.623502e+001
1.129003e+003, 9.703522e+001
1.129485e+003, 9.714532e+001
1.129967e+003, 9.687776e+001
1.130449e+003, 9.619940e+001
1.130931e+003, 9.579094e+001
1.131413e+003, 9.590354e+001
1.131895e+003, 9.639736e+001
1.132377e+003, 9.730493e+001
1.132860e+003, 9.803989e+001
1.133342e+003, 9.653243e+001
1.133824e+003, 9.319643e+001
1.134306e+003, 9.237827e+001
1.134788e+003, 9.398531e+001
1.135270e+003, 9.521021e+001
1.135752e+003, 9.538330e+001
1.136234e+003, 9.520799e+001
1.136717e+003, 9.509102e+001
1.137199e+003, 9.527454e+001
1.137681e+003, 9.653060e+001
1.138163e+003, 9.822434e+001
1.138645e+003, 9.805537e+001
1.139127e+003, 9.661341e+001
1.139609e+003, 9.616183e+001
1.140091e+003, 9.681973e+001
1.140573e+003, 9.725722e+001
1.141056e+003, 9.690966e+001
1.141538e+003, 9.616448e+001
1.142020e+003, 9.515817e+001
1.142502e+003, 9.432838e+001
1.142984e+003, 9.441853e+001
1.143466e+003, 9.512553e+001
1.143948e+003, 9.626934e+001
1.144430e+003, 9.744761e+001
1.144912e+003, 9.767313e+001
1.145395e+003, 9.679874e+001
1.145877e+003, 9.553513e+001
1.146359e+003, 9.410884e+001
1.146841e+003, 9.313900e+001
1.147323e+003, 9.373485e+001
1.147805e+003, 9.457342e+001
1.148287e+003, 9.406953e+001
1.148769e+003, 9.288152e+001
1.149252e+003, 9.196249e+001
1.149734e+003, 9.149314e+001
1.150216e+003, 9.144009e+001
1.150698e+003, 9.181929e+001
1.151180e+003, 9.228838e+001
1.151662e+003, 9.267673e+001
1.152144e+003, 9.306947e+001
1.152626e+003, 9.380251e+001
1.153109e+003, 9.430826e+001
1.153591e+003, 9.343672e+001
1.154073e+003, 9.218738e+001
1.154555e+003, 9.284908e+001
1.155037e+003, 9.563265e+001
1.155519e+003, 9.738275e+001
1.156001e+003, 9.696808e+001
1.156483e+003, 9.579121e+001
1.156965e+003, 9.316509e+001
1.157448e+003, 9.106857e+001
1.157930e+003, 9.074509e+001
1.158412e+003, 9.134341e+001
1.158894e+003, 9.222514e+001
1.159376e+003, 9.318068e+001
1.159858e+003, 9.337256e+001
1.160340e+003, 9.197532e+001
1.160822e+003, 9.188266e+001
1.161304e+003, 9.457515e+001
1.161787e+003, 9.625439e+001
1.162269e+003, 9.555373e+001
1.162751e+003, 9.435040e+001
1.163233e+003, 9.367653e+001
1.163715e+003, 9.349495e+001
1.164197e+003, 9.392683e+001
1.164679e+003, 9.499828e+001
1.165161e+003, 9.464900e+001
1.165644e+003, 9.221107e+001
1.166126e+003, 9.090169e+001
1.166608e+003, 9.122514e+001
1.167090e+003, 9.216435e+001
1.167572e+003, 9.344762e+001
1.168054e+003, 9.465720e+001
1.168536e+003, 9.540800e+001
1.169018e+003, 9.561781e+001
1.169500e+003, 9.465348e+001
1.169983e+003, 9.258945e+001
1.170465e+003, 9.225780e+001
1.170947e+003, 9.368266e+001
1.171429e+003, 9.441113e+001
1.171911e+003, 9.387107e+001
1.172393e+003, 9.335763e+001
1.172875e+003, 9.370027e+001
1.173357e+003, 9.410810e+001
1.173839e+003, 9.305017e+001
1.174322e+003, 9.145689e+001
1.174804e+003, 9.233537e+001
1.175286e+003, 9.462742e+001
1.175768e+003, 9.461470e+001
1.176250e+003, 9.272121e+001
1.176732e+003, 9.289140e+001
1.177214e+003, 9.614892e+001
1.177696e+003, 9.844465e+001
1.178179e+003, 9.624196e+001
1.178661e+003, 9.317842e+001
1.179143e+003, 9.326703e+001
1.179625e+003, 9.467656e+001
1.180107e+003, 9.557397e+001
1.180589e+003, 9.584253e+001
1.181071e+003, 9.521558e+001
1.181553e+003, 9.402990e+001
1.182036e+003, 9.349048e+001
1.182518e+003, 9.409740e+001
1.183000e+003, 9.482738e+001
1.183482e+003, 9.560031e+001
1.183964e+003, 9.578506e+001
1.184446e+003, 9.446598e+001
1.184928e+003, 9.294537e+001
1.185410e+003, 9.218530e+001
1.185892e+003, 9.210014e+001
1.186375e+003, 9.259939e+001
1.186857e+003, 9.361277e+001
1.187339e+003, 9.418114e+001
1.187821e+003, 9.435693e+001
1.188303e+003, 9.375636e+001
1.188785e+003, 9.101946e+001
1.189267e+003, 8.923528e+001
1.189749e+003, 8.987712e+001
1.190231e+003, 9.144844e+001
1.190714e+003, 9.300276e+001
1.191196e+003, 9.439220e+001
1.191678e+003, 9.515633e+001
1.192160e+003, 9.519956e+001
1.192642e+003, 9.551033e+001
1.193124e+003, 9.648138e+001
1.193606e+003, 9.590290e+001
1.194088e+003, 9.276522e+001
1.194571e+003, 9.118141e+001
1.195053e+003, 9.372914e+001
1.195535e+003, 9.613690e+001
1.196017e+003, 9.275035e+001
1.196499e+003, 8.616924e+001
1.196981e+003, 8.625408e+001
1.197463e+003, 9.196858e+001
1.197945e+003, 9.328233e+001
1.198427e+003, 9.032713e+001
1.198910e+003, 8.887434e+001
1.199392e+003, 9.021840e+001
1.199874e+003, 9.194189e+001
1.200356e+003, 9.261440e+001
1.200838e+003, 9.279836e+001
1.201320e+003, 9.313539e+001
1.201802e+003, 9.346950e+001
1.202284e+003, 9.356660e+001
1.202766e+003, 9.345860e+001
1.203249e+003, 9.331451e+001
1.203731e+003, 9.299443e+001
1.204213e+003, 9.181787e+001
1.204695e+003, 8.983025e+001
1.205177e+003, 8.855102e+001
1.205659e+003, 8.885403e+001
1.206141e+003, 8.993056e+001
1.206623e+003, 9.220245e+001
1.207105e+003, 9.401302e+001
1.207588e+003, 9.390975e+001
1.208070e+003, 9.288428e+001
1.208552e+003, 9.181057e+001
1.209034e+003, 9.090115e+001
1.209516e+003, 9.023081e+001
1.209998e+003, 8.971501e+001
1.210480e+003, 9.024657e+001
1.210962e+003, 9.340250e+001
1.211445e+003, 9.543300e+001
1.211927e+003, 9.517256e+001
1.212409e+003, 9.436524e+001
1.212891e+003, 9.358115e+001
1.213373e+003, 9.275301e+001
1.213855e+003, 9.163322e+001
1.214337e+003, 9.047637e+001
1.214819e+003, 9.036397e+001
1.215302e+003, 9.154108e+001
1.215784e+003, 9.237824e+001
1.216266e+003, 9.285938e+001
1.216748e+003, 9.310508e+001
1.217230e+003, 9.314323e+001
1.217712e+003, 9.290794e+001
1.218194e+003, 9.234337e+001
1.218676e+003, 9.160460e+001
1.219158e+003, 9.074193e+001
1.219641e+003, 9.006557e+001
1.220123e+003, 9.071293e+001
1.220605e+003, 9.223847e+001
1.221087e+003, 9.305779e+001
1.221569e+003, 9.326389e+001
1.222051e+003, 9.384298e+001
1.222533e+003, 9.487834e+001
1.223015e+003, 9.540149e+001
1.223497e+003, 9.488652e+001
1.223980e+003, 9.372976e+001
1.224462e+003, 9.146571e+001
1.224944e+003, 8.961677e+001
1.225426e+003, 9.041737e+001
1.225908e+003, 9.182352e+001
1.226390e+003, 9.096929e+001
1.226872e+003, 8.896777e+001
1.227354e+003, 8.849706e+001
1.227837e+003, 8.983634e+001
1.228319e+003, 9.109964e+001
1.228801e+003, 9.195332e+001
1.229283e+003, 9.225454e+001
1.229765e+003, 9.144572e+001
1.230247e+003, 9.076801e+001
1.230729e+003, 9.120714e+001
1.231211e+003, 9.142169e+001
1.231693e+003, 8.982539e+001
1.232176e+003, 8.767918e+001
1.232658e+003, 8.758728e+001
1.233140e+003, 8.956001e+001
1.233622e+003, 9.015794e+001
1.234104e+003, 8.886096e+001
1.234586e+003, 8.856058e+001
1.235068e+003, 8.964223e+001
1.235550e+003, 9.090260e+001
1.236032e+003, 9.200792e+001
1.236515e+003, 9.246308e+001
1.236997e+003, 9.181844e+001
1.237479e+003, 9.052091e+001
1.237961e+003, 8.899249e+001
1.238443e+003, 8.757564e+001
1.238925e+003, 8.775178e+001
1.239407e+003, 8.905009e+001
1.239889e+003, 9.020828e+001
1.240372e+003, 9.097248e+001
1.240854e+003, 9.099153e+001
1.241336e+003, 9.028995e+001
1.241818e+003, 8.996726e+001
1.242300e+003, 9.087701e+001
1.242782e+003, 9.195421e+001
1.243264e+003, 9.262992e+001
1.243746e+003, 9.277415e+001
1.244229e+003, 9.185563e+001
1.244711e+003, 9.067109e+001
1.245193e+003, 9.026813e+001
1.245675e+003, 9.035483e+001
1.246157e+003, 8.994183e+001
1.246639e+003, 8.884859e+001
1.247121e+003, 8.803180e+001
1.247603e+003, 8.725362e+001
1.248085e+003, 8.743360e+001
1.248568e+003, 8.962398e+001
1.249050e+003, 9.128252e+001
1.249532e+003, 9.137306e+001
1.250014e+003, 9.090971e+001
1.250496e+003, 9.065104e+001
1.250978e+003, 9.055180e+001
1.251460e+003, 9.050519e+001
1.251942e+003, 9.051465e+001
1.252424e+003, 9.094619e+001
1.252907e+003, 9.180051e+001
1.253389e+003, 9.068091e+001
1.253871e+003, 8.749986e+001
1.254353e+003, 8.618821e+001
1.254835e+003, 8.806976e+001
1.255317e+003, 9.035967e+001
1.255799e+003, 9.099961e+001
1.256281e+003, 9.059422e+001
1.256764e+003, 8.931696e+001
1.257246e+003, 8.802373e+001
1.257728e+003, 8.814367e+001
1.258210e+003, 8.905774e+001
1.258692e+003, 8.991298e+001
1.259174e+003, 9.054091e+001
1.259656e+003, 9.099797e+001
1.260138e+003, 9.125765e+001
1.260620e+003, 9.094173e+001
1.261103e+003, 8.944590e+001
1.261585e+003, 8.827257e+001
1.262067e+003, 8.742358e+001
1.262549e+003, 8.763525e+001
1.263031e+003, 9.084663e+001
1.263513e+003, 9.367244e+001
1.263995e+003, 9.285027e+001
1.264477e+003, 9.005346e+001
1.264959e+003, 8.809714e+001
1.265442e+003, 8.697756e+001
1.265924e+003, 8.681364e+001
1.266406e+003, 8.767589e+001
1.266888e+003, 8.938832e+001
1.267370e+003, 9.213954e+001
1.267852e+003, 9.380302e+001
1.268334e+003, 9.373410e+001
1.268816e+003, 9.233569e+001
1.269299e+003, 8.972482e+001
1.269781e+003, 8.747313e+001
1.270263e+003, 8.834002e+001
1.270745e+003, 9.057863e+001
1.271227e+003, 9.045148e+001
1.271709e+003, 8.901586e+001
1.272191e+003, 8.801912e+001
1.272673e+003, 8.766467e+001
1.273156e+003, 8.803230e+001
1.273638e+003, 8.899660e+001
1.274120e+003, 9.006310e+001
1.274602e+003, 9.111626e+001
1.275084e+003, 9.180344e+001
1.275566e+003, 9.198875e+001
1.276048e+003, 9.172378e+001
1.276530e+003, 9.054039e+001
1.277012e+003, 8.943832e+001
1.277495e+003, 8.912759e+001
1.277977e+003, 8.932114e+001
1.278459e+003, 8.949407e+001
1.278941e+003, 8.977378e+001
1.279423e+003, 9.103320e+001
1.279905e+003, 9.395464e+001
1.280387e+003, 9.407713e+001
1.280869e+003, 9.082123e+001
1.281351e+003, 8.857227e+001
1.281834e+003, 8.813498e+001
1.282316e+003, 8.851382e+001
1.282798e+003, 8.927785e+001
1.283280e+003, 8.999137e+001
1.283762e+003, 9.024579e+001
1.284244e+003, 9.003368e+001
##END=



