##NAMES=Montgomeryite
##RRUFFID=R140664
##IDEAL CHEMISTRY=Ca_4_MgAl_4_(PO_4_)_6_(OH)_4_&#183;12H_2_O
##LOCALITY=Foote Mineral Company mine, Kings Mountain, North Carolina, USA
##OWNER=RRUFF
##SOURCE=Rock Currier
##DESCRIPTION=Radial aggregates of colorless, bladed to platy crystals
##STATUS=The identification of this mineral has been confirmed only by single crystal X-ray diffraction.
##URL=rruff.info/R140664
8.806445e+001, 1.326820e+003
8.854657e+001, 1.302295e+003
8.902869e+001, 1.293837e+003
8.951080e+001, 1.309096e+003
8.999292e+001, 1.336941e+003
9.047504e+001, 1.367665e+003
9.095715e+001, 1.399659e+003
9.143927e+001, 1.430926e+003
9.192139e+001, 1.459070e+003
9.240350e+001, 1.484398e+003
9.288562e+001, 1.507148e+003
9.336774e+001, 1.516263e+003
9.384985e+001, 1.502849e+003
9.433197e+001, 1.471594e+003
9.481409e+001, 1.444473e+003
9.529620e+001, 1.415998e+003
9.577832e+001, 1.390271e+003
9.626044e+001, 1.367996e+003
9.674255e+001, 1.348648e+003
9.722467e+001, 1.331374e+003
9.770679e+001, 1.315818e+003
9.818890e+001, 1.302135e+003
9.867102e+001, 1.290254e+003
9.915314e+001, 1.279498e+003
9.963525e+001, 1.269176e+003
1.001174e+002, 1.258894e+003
1.005995e+002, 1.248809e+003
1.010816e+002, 1.239631e+003
1.015637e+002, 1.230672e+003
1.020458e+002, 1.223193e+003
1.025280e+002, 1.217787e+003
1.030101e+002, 1.213578e+003
1.034922e+002, 1.209176e+003
1.039743e+002, 1.203545e+003
1.044564e+002, 1.196615e+003
1.049385e+002, 1.191042e+003
1.054207e+002, 1.187924e+003
1.059028e+002, 1.184702e+003
1.063849e+002, 1.180036e+003
1.068670e+002, 1.173859e+003
1.073491e+002, 1.166799e+003
1.078312e+002, 1.159124e+003
1.083134e+002, 1.150866e+003
1.087955e+002, 1.143135e+003
1.092776e+002, 1.135944e+003
1.097597e+002, 1.129371e+003
1.102418e+002, 1.123520e+003
1.107239e+002, 1.118370e+003
1.112061e+002, 1.114056e+003
1.116882e+002, 1.110628e+003
1.121703e+002, 1.107975e+003
1.126524e+002, 1.106084e+003
1.131345e+002, 1.105549e+003
1.136166e+002, 1.106229e+003
1.140988e+002, 1.105713e+003
1.145809e+002, 1.102884e+003
1.150630e+002, 1.099336e+003
1.155451e+002, 1.095708e+003
1.160272e+002, 1.092102e+003
1.165093e+002, 1.088630e+003
1.169915e+002, 1.085359e+003
1.174736e+002, 1.082159e+003
1.179557e+002, 1.079538e+003
1.184378e+002, 1.077911e+003
1.189199e+002, 1.076508e+003
1.194020e+002, 1.074520e+003
1.198842e+002, 1.071744e+003
1.203663e+002, 1.068891e+003
1.208484e+002, 1.067598e+003
1.213305e+002, 1.070647e+003
1.218126e+002, 1.072148e+003
1.222947e+002, 1.070891e+003
1.227769e+002, 1.068237e+003
1.232590e+002, 1.065982e+003
1.237411e+002, 1.065084e+003
1.242232e+002, 1.065144e+003
1.247053e+002, 1.064209e+003
1.251874e+002, 1.061111e+003
1.256696e+002, 1.058500e+003
1.261517e+002, 1.057762e+003
1.266338e+002, 1.058505e+003
1.271159e+002, 1.059029e+003
1.275980e+002, 1.058176e+003
1.280801e+002, 1.056299e+003
1.285623e+002, 1.054834e+003
1.290444e+002, 1.054240e+003
1.295265e+002, 1.053793e+003
1.300086e+002, 1.052714e+003
1.304907e+002, 1.050898e+003
1.309728e+002, 1.048995e+003
1.314550e+002, 1.047016e+003
1.319371e+002, 1.045258e+003
1.324192e+002, 1.044326e+003
1.329013e+002, 1.045068e+003
1.333834e+002, 1.046712e+003
1.338655e+002, 1.046846e+003
1.343477e+002, 1.044425e+003
1.348298e+002, 1.041936e+003
1.353119e+002, 1.040337e+003
1.357940e+002, 1.039440e+003
1.362761e+002, 1.038867e+003
1.367582e+002, 1.038319e+003
1.372404e+002, 1.037791e+003
1.377225e+002, 1.037726e+003
1.382046e+002, 1.039365e+003
1.386867e+002, 1.040389e+003
1.391688e+002, 1.039774e+003
1.396509e+002, 1.037744e+003
1.401331e+002, 1.035253e+003
1.406152e+002, 1.033244e+003
1.410973e+002, 1.031911e+003
1.415794e+002, 1.030464e+003
1.420615e+002, 1.028734e+003
1.425436e+002, 1.027041e+003
1.430258e+002, 1.025487e+003
1.435079e+002, 1.024127e+003
1.439900e+002, 1.023072e+003
1.444721e+002, 1.022545e+003
1.449542e+002, 1.022927e+003
1.454363e+002, 1.022814e+003
1.459185e+002, 1.021715e+003
1.464006e+002, 1.020252e+003
1.468827e+002, 1.019078e+003
1.473648e+002, 1.018361e+003
1.478469e+002, 1.018033e+003
1.483290e+002, 1.018168e+003
1.488112e+002, 1.018818e+003
1.492933e+002, 1.019281e+003
1.497754e+002, 1.019266e+003
1.502575e+002, 1.018860e+003
1.507396e+002, 1.018210e+003
1.512217e+002, 1.017007e+003
1.517039e+002, 1.016044e+003
1.521860e+002, 1.016469e+003
1.526681e+002, 1.018488e+003
1.531502e+002, 1.020311e+003
1.536323e+002, 1.020479e+003
1.541144e+002, 1.018950e+003
1.545966e+002, 1.017118e+003
1.550787e+002, 1.015214e+003
1.555608e+002, 1.013236e+003
1.560429e+002, 1.011118e+003
1.565250e+002, 1.008829e+003
1.570071e+002, 1.006605e+003
1.574893e+002, 1.004779e+003
1.579714e+002, 1.003446e+003
1.584535e+002, 1.002279e+003
1.589356e+002, 1.001403e+003
1.594177e+002, 1.000541e+003
1.598998e+002, 9.995001e+002
1.603820e+002, 9.982102e+002
1.608641e+002, 9.966915e+002
1.613462e+002, 9.949708e+002
1.618283e+002, 9.927100e+002
1.623104e+002, 9.907275e+002
1.627925e+002, 9.892548e+002
1.632747e+002, 9.880239e+002
1.637568e+002, 9.867802e+002
1.642389e+002, 9.854108e+002
1.647210e+002, 9.838953e+002
1.652031e+002, 9.821360e+002
1.656852e+002, 9.794565e+002
1.661674e+002, 9.773047e+002
1.666495e+002, 9.764396e+002
1.671316e+002, 9.762281e+002
1.676137e+002, 9.754882e+002
1.680958e+002, 9.734237e+002
1.685779e+002, 9.703636e+002
1.690601e+002, 9.683837e+002
1.695422e+002, 9.679875e+002
1.700243e+002, 9.678917e+002
1.705064e+002, 9.676185e+002
1.709885e+002, 9.672134e+002
1.714706e+002, 9.669132e+002
1.719528e+002, 9.669082e+002
1.724349e+002, 9.671204e+002
1.729170e+002, 9.671752e+002
1.733991e+002, 9.670098e+002
1.738812e+002, 9.667340e+002
1.743633e+002, 9.663676e+002
1.748455e+002, 9.659046e+002
1.753276e+002, 9.655344e+002
1.758097e+002, 9.655336e+002
1.762918e+002, 9.656717e+002
1.767739e+002, 9.655114e+002
1.772560e+002, 9.647123e+002
1.777382e+002, 9.637579e+002
1.782203e+002, 9.635054e+002
1.787024e+002, 9.642831e+002
1.791845e+002, 9.646771e+002
1.796666e+002, 9.635397e+002
1.801487e+002, 9.616871e+002
1.806309e+002, 9.601111e+002
1.811130e+002, 9.592126e+002
1.815951e+002, 9.588646e+002
1.820772e+002, 9.587512e+002
1.825593e+002, 9.590091e+002
1.830414e+002, 9.592888e+002
1.835236e+002, 9.594713e+002
1.840057e+002, 9.595880e+002
1.844878e+002, 9.597232e+002
1.849699e+002, 9.599905e+002
1.854520e+002, 9.602976e+002
1.859341e+002, 9.600363e+002
1.864163e+002, 9.584494e+002
1.868984e+002, 9.571052e+002
1.873805e+002, 9.563739e+002
1.878626e+002, 9.561273e+002
1.883447e+002, 9.561426e+002
1.888268e+002, 9.562986e+002
1.893090e+002, 9.565872e+002
1.897911e+002, 9.566750e+002
1.902732e+002, 9.564980e+002
1.907553e+002, 9.561974e+002
1.912374e+002, 9.557170e+002
1.917195e+002, 9.551375e+002
1.922017e+002, 9.546182e+002
1.926838e+002, 9.542957e+002
1.931659e+002, 9.541816e+002
1.936480e+002, 9.539365e+002
1.941301e+002, 9.534117e+002
1.946122e+002, 9.529300e+002
1.950944e+002, 9.527186e+002
1.955765e+002, 9.527032e+002
1.960586e+002, 9.526107e+002
1.965407e+002, 9.522356e+002
1.970228e+002, 9.515471e+002
1.975049e+002, 9.506275e+002
1.979871e+002, 9.490970e+002
1.984692e+002, 9.476525e+002
1.989513e+002, 9.466849e+002
1.994334e+002, 9.462133e+002
1.999155e+002, 9.461364e+002
2.003976e+002, 9.465813e+002
2.008798e+002, 9.474525e+002
2.013619e+002, 9.476895e+002
2.018440e+002, 9.467889e+002
2.023261e+002, 9.455341e+002
2.028082e+002, 9.446535e+002
2.032903e+002, 9.442079e+002
2.037725e+002, 9.437361e+002
2.042546e+002, 9.427893e+002
2.047367e+002, 9.415368e+002
2.052188e+002, 9.404603e+002
2.057009e+002, 9.395146e+002
2.061830e+002, 9.388506e+002
2.066652e+002, 9.388389e+002
2.071473e+002, 9.396727e+002
2.076294e+002, 9.404234e+002
2.081115e+002, 9.403699e+002
2.085936e+002, 9.398251e+002
2.090757e+002, 9.392079e+002
2.095579e+002, 9.386634e+002
2.100400e+002, 9.381401e+002
2.105221e+002, 9.375233e+002
2.110042e+002, 9.367811e+002
2.114863e+002, 9.360036e+002
2.119685e+002, 9.350613e+002
2.124506e+002, 9.341354e+002
2.129327e+002, 9.335367e+002
2.134148e+002, 9.335117e+002
2.138969e+002, 9.338610e+002
2.143790e+002, 9.339223e+002
2.148612e+002, 9.333617e+002
2.153433e+002, 9.330825e+002
2.158254e+002, 9.336513e+002
2.163075e+002, 9.345955e+002
2.167896e+002, 9.352530e+002
2.172717e+002, 9.352139e+002
2.177539e+002, 9.346395e+002
2.182360e+002, 9.342650e+002
2.187181e+002, 9.343795e+002
2.192002e+002, 9.343124e+002
2.196823e+002, 9.336266e+002
2.201644e+002, 9.327309e+002
2.206466e+002, 9.322414e+002
2.211287e+002, 9.325712e+002
2.216108e+002, 9.335388e+002
2.220929e+002, 9.341078e+002
2.225750e+002, 9.339265e+002
2.230571e+002, 9.336883e+002
2.235393e+002, 9.335500e+002
2.240214e+002, 9.334200e+002
2.245035e+002, 9.331302e+002
2.249856e+002, 9.325693e+002
2.254677e+002, 9.317963e+002
2.259498e+002, 9.311877e+002
2.264320e+002, 9.306603e+002
2.269141e+002, 9.304052e+002
2.273962e+002, 9.304222e+002
2.278783e+002, 9.307405e+002
2.283604e+002, 9.315255e+002
2.288425e+002, 9.329341e+002
2.293247e+002, 9.347469e+002
2.298068e+002, 9.356793e+002
2.302889e+002, 9.352569e+002
2.307710e+002, 9.345726e+002
2.312531e+002, 9.334454e+002
2.317352e+002, 9.322350e+002
2.322174e+002, 9.315974e+002
2.326995e+002, 9.319372e+002
2.331816e+002, 9.330010e+002
2.336637e+002, 9.336769e+002
2.341458e+002, 9.339672e+002
2.346279e+002, 9.339540e+002
2.351101e+002, 9.334186e+002
2.355922e+002, 9.325979e+002
2.360743e+002, 9.319646e+002
2.365564e+002, 9.317653e+002
2.370385e+002, 9.318790e+002
2.375206e+002, 9.319598e+002
2.380028e+002, 9.323096e+002
2.384849e+002, 9.322167e+002
2.389670e+002, 9.309168e+002
2.394491e+002, 9.289885e+002
2.399312e+002, 9.278248e+002
2.404133e+002, 9.282014e+002
2.408955e+002, 9.294173e+002
2.413776e+002, 9.299464e+002
2.418597e+002, 9.297938e+002
2.423418e+002, 9.291639e+002
2.428239e+002, 9.276886e+002
2.433060e+002, 9.257507e+002
2.437882e+002, 9.244617e+002
2.442703e+002, 9.243809e+002
2.447524e+002, 9.249074e+002
2.452345e+002, 9.251200e+002
2.457166e+002, 9.250508e+002
2.461987e+002, 9.246342e+002
2.466809e+002, 9.235714e+002
2.471630e+002, 9.220829e+002
2.476451e+002, 9.208937e+002
2.481272e+002, 9.202255e+002
2.486093e+002, 9.199339e+002
2.490914e+002, 9.199626e+002
2.495736e+002, 9.203319e+002
2.500557e+002, 9.204222e+002
2.505378e+002, 9.195181e+002
2.510199e+002, 9.179484e+002
2.515020e+002, 9.171637e+002
2.519841e+002, 9.178955e+002
2.524663e+002, 9.188476e+002
2.529484e+002, 9.188558e+002
2.534305e+002, 9.179978e+002
2.539126e+002, 9.169064e+002
2.543947e+002, 9.157514e+002
2.548768e+002, 9.146106e+002
2.553590e+002, 9.139530e+002
2.558411e+002, 9.142104e+002
2.563232e+002, 9.144241e+002
2.568053e+002, 9.137360e+002
2.572874e+002, 9.123978e+002
2.577695e+002, 9.113120e+002
2.582516e+002, 9.113138e+002
2.587338e+002, 9.121414e+002
2.592159e+002, 9.122822e+002
2.596980e+002, 9.110719e+002
2.601801e+002, 9.100985e+002
2.606622e+002, 9.104351e+002
2.611443e+002, 9.116196e+002
2.616265e+002, 9.126190e+002
2.621086e+002, 9.127145e+002
2.625907e+002, 9.121121e+002
2.630728e+002, 9.117932e+002
2.635549e+002, 9.120646e+002
2.640370e+002, 9.121310e+002
2.645192e+002, 9.115043e+002
2.650013e+002, 9.105099e+002
2.654834e+002, 9.097059e+002
2.659655e+002, 9.094799e+002
2.664476e+002, 9.096049e+002
2.669297e+002, 9.091956e+002
2.674119e+002, 9.077103e+002
2.678940e+002, 9.065888e+002
2.683761e+002, 9.065681e+002
2.688582e+002, 9.070149e+002
2.693403e+002, 9.070599e+002
2.698224e+002, 9.061955e+002
2.703046e+002, 9.049108e+002
2.707867e+002, 9.046246e+002
2.712688e+002, 9.060290e+002
2.717509e+002, 9.072426e+002
2.722330e+002, 9.082706e+002
2.727151e+002, 9.087785e+002
2.731973e+002, 9.082134e+002
2.736794e+002, 9.063194e+002
2.741615e+002, 9.038511e+002
2.746436e+002, 9.024073e+002
2.751257e+002, 9.024565e+002
2.756078e+002, 9.026716e+002
2.760900e+002, 9.029508e+002
2.765721e+002, 9.032356e+002
2.770542e+002, 9.034808e+002
2.775363e+002, 9.036709e+002
2.780184e+002, 9.038118e+002
2.785005e+002, 9.039127e+002
2.789827e+002, 9.039716e+002
2.794648e+002, 9.039870e+002
2.799469e+002, 9.038453e+002
2.804290e+002, 9.037473e+002
2.809111e+002, 9.039328e+002
2.813932e+002, 9.043926e+002
2.818754e+002, 9.048192e+002
2.823575e+002, 9.047656e+002
2.828396e+002, 9.039953e+002
2.833217e+002, 9.034348e+002
2.838038e+002, 9.032338e+002
2.842859e+002, 9.030936e+002
2.847681e+002, 9.028912e+002
2.852502e+002, 9.026010e+002
2.857323e+002, 9.022032e+002
2.862144e+002, 9.015612e+002
2.866965e+002, 9.004555e+002
2.871786e+002, 9.004304e+002
2.876608e+002, 9.026851e+002
2.881429e+002, 9.047980e+002
2.886250e+002, 9.058069e+002
2.891071e+002, 9.058059e+002
2.895892e+002, 9.053617e+002
2.900714e+002, 9.049004e+002
2.905535e+002, 9.044254e+002
2.910356e+002, 9.039274e+002
2.915177e+002, 9.032584e+002
2.919998e+002, 9.027296e+002
2.924819e+002, 9.025866e+002
2.929641e+002, 9.026393e+002
2.934462e+002, 9.025245e+002
2.939283e+002, 9.019935e+002
2.944104e+002, 9.011161e+002
2.948925e+002, 9.003506e+002
2.953746e+002, 8.995573e+002
2.958568e+002, 8.990467e+002
2.963389e+002, 8.990597e+002
2.968210e+002, 8.993268e+002
2.973031e+002, 8.996264e+002
2.977852e+002, 8.998654e+002
2.982673e+002, 8.998129e+002
2.987495e+002, 8.987786e+002
2.992316e+002, 8.953139e+002
2.997137e+002, 8.926193e+002
3.001958e+002, 8.911581e+002
3.006779e+002, 8.903397e+002
3.011600e+002, 8.896270e+002
3.016422e+002, 8.888249e+002
3.021243e+002, 8.879883e+002
3.026064e+002, 8.872206e+002
3.030885e+002, 8.865180e+002
3.035706e+002, 8.859047e+002
3.040527e+002, 8.852982e+002
3.045349e+002, 8.848261e+002
3.050170e+002, 8.846955e+002
3.054991e+002, 8.848885e+002
3.059812e+002, 8.851030e+002
3.064633e+002, 8.849676e+002
3.069454e+002, 8.844021e+002
3.074276e+002, 8.837422e+002
3.079097e+002, 8.828513e+002
3.083918e+002, 8.820118e+002
3.088739e+002, 8.813411e+002
3.093560e+002, 8.808646e+002
3.098381e+002, 8.806307e+002
3.103203e+002, 8.807515e+002
3.108024e+002, 8.812928e+002
3.112845e+002, 8.811425e+002
3.117666e+002, 8.793743e+002
3.122487e+002, 8.779664e+002
3.127308e+002, 8.779550e+002
3.132130e+002, 8.788452e+002
3.136951e+002, 8.795207e+002
3.141772e+002, 8.792620e+002
3.146593e+002, 8.781781e+002
3.151414e+002, 8.770340e+002
3.156235e+002, 8.753913e+002
3.161057e+002, 8.741774e+002
3.165878e+002, 8.736726e+002
3.170699e+002, 8.736447e+002
3.175520e+002, 8.739254e+002
3.180341e+002, 8.744441e+002
3.185162e+002, 8.749271e+002
3.189984e+002, 8.746478e+002
3.194805e+002, 8.722575e+002
3.199626e+002, 8.708848e+002
3.204447e+002, 8.714933e+002
3.209268e+002, 8.726180e+002
3.214089e+002, 8.728743e+002
3.218911e+002, 8.719155e+002
3.223732e+002, 8.704270e+002
3.228553e+002, 8.694091e+002
3.233374e+002, 8.691497e+002
3.238195e+002, 8.686915e+002
3.243016e+002, 8.675651e+002
3.247838e+002, 8.666346e+002
3.252659e+002, 8.666657e+002
3.257480e+002, 8.675517e+002
3.262301e+002, 8.684738e+002
3.267122e+002, 8.686118e+002
3.271943e+002, 8.678517e+002
3.276765e+002, 8.672088e+002
3.281586e+002, 8.666576e+002
3.286407e+002, 8.662194e+002
3.291228e+002, 8.660646e+002
3.296049e+002, 8.660268e+002
3.300870e+002, 8.656901e+002
3.305692e+002, 8.647125e+002
3.310513e+002, 8.632500e+002
3.315334e+002, 8.625282e+002
3.320155e+002, 8.636989e+002
3.324976e+002, 8.643376e+002
3.329797e+002, 8.636318e+002
3.334619e+002, 8.623521e+002
3.339440e+002, 8.615502e+002
3.344261e+002, 8.617007e+002
3.349082e+002, 8.623842e+002
3.353904e+002, 8.625767e+002
3.358725e+002, 8.617814e+002
3.363546e+002, 8.612773e+002
3.368367e+002, 8.614440e+002
3.373188e+002, 8.616966e+002
3.378009e+002, 8.615528e+002
3.382831e+002, 8.609181e+002
3.387652e+002, 8.600319e+002
3.392473e+002, 8.592247e+002
3.397294e+002, 8.585848e+002
3.402115e+002, 8.577243e+002
3.406936e+002, 8.563024e+002
3.411758e+002, 8.549816e+002
3.416579e+002, 8.540538e+002
3.421400e+002, 8.535190e+002
3.426221e+002, 8.532694e+002
3.431042e+002, 8.532475e+002
3.435863e+002, 8.534496e+002
3.440685e+002, 8.535635e+002
3.445506e+002, 8.529883e+002
3.450327e+002, 8.529543e+002
3.455148e+002, 8.543151e+002
3.459969e+002, 8.562960e+002
3.464790e+002, 8.576965e+002
3.469612e+002, 8.578602e+002
3.474433e+002, 8.570593e+002
3.479254e+002, 8.561148e+002
3.484075e+002, 8.548493e+002
3.488896e+002, 8.537463e+002
3.493717e+002, 8.530442e+002
3.498539e+002, 8.524271e+002
3.503360e+002, 8.514386e+002
3.508181e+002, 8.499943e+002
3.513002e+002, 8.486740e+002
3.517823e+002, 8.485165e+002
3.522644e+002, 8.500731e+002
3.527466e+002, 8.509910e+002
3.532287e+002, 8.506181e+002
3.537108e+002, 8.500243e+002
3.541929e+002, 8.497642e+002
3.546750e+002, 8.498290e+002
3.551571e+002, 8.498620e+002
3.556393e+002, 8.494641e+002
3.561214e+002, 8.486410e+002
3.566035e+002, 8.482464e+002
3.570856e+002, 8.488439e+002
3.575677e+002, 8.492056e+002
3.580498e+002, 8.485080e+002
3.585320e+002, 8.473431e+002
3.590141e+002, 8.468768e+002
3.594962e+002, 8.480098e+002
3.599783e+002, 8.498339e+002
3.604604e+002, 8.496369e+002
3.609425e+002, 8.462023e+002
3.614247e+002, 8.435849e+002
3.619068e+002, 8.437209e+002
3.623889e+002, 8.447473e+002
3.628710e+002, 8.448549e+002
3.633531e+002, 8.435186e+002
3.638352e+002, 8.420670e+002
3.643174e+002, 8.424463e+002
3.647995e+002, 8.449315e+002
3.652816e+002, 8.463893e+002
3.657637e+002, 8.455621e+002
3.662458e+002, 8.441304e+002
3.667279e+002, 8.428556e+002
3.672101e+002, 8.418718e+002
3.676922e+002, 8.415101e+002
3.681743e+002, 8.427604e+002
3.686564e+002, 8.450211e+002
3.691385e+002, 8.452097e+002
3.696206e+002, 8.420299e+002
3.701028e+002, 8.390831e+002
3.705849e+002, 8.391200e+002
3.710670e+002, 8.407870e+002
3.715491e+002, 8.417050e+002
3.720312e+002, 8.408375e+002
3.725133e+002, 8.390260e+002
3.729955e+002, 8.371466e+002
3.734776e+002, 8.351169e+002
3.739597e+002, 8.339114e+002
3.744418e+002, 8.345277e+002
3.749239e+002, 8.358765e+002
3.754060e+002, 8.365132e+002
3.758882e+002, 8.361600e+002
3.763703e+002, 8.357860e+002
3.768524e+002, 8.361379e+002
3.773345e+002, 8.370521e+002
3.778166e+002, 8.378847e+002
3.782987e+002, 8.385364e+002
3.787809e+002, 8.389796e+002
3.792630e+002, 8.391801e+002
3.797451e+002, 8.391622e+002
3.802272e+002, 8.389406e+002
3.807093e+002, 8.381429e+002
3.811914e+002, 8.373189e+002
3.816736e+002, 8.372914e+002
3.821557e+002, 8.381444e+002
3.826378e+002, 8.392383e+002
3.831199e+002, 8.403127e+002
3.836020e+002, 8.412388e+002
3.840841e+002, 8.416215e+002
3.845663e+002, 8.410148e+002
3.850484e+002, 8.403051e+002
3.855305e+002, 8.398542e+002
3.860126e+002, 8.396924e+002
3.864947e+002, 8.400205e+002
3.869768e+002, 8.410569e+002
3.874590e+002, 8.423469e+002
3.879411e+002, 8.428268e+002
3.884232e+002, 8.422191e+002
3.889053e+002, 8.418063e+002
3.893874e+002, 8.420161e+002
3.898695e+002, 8.424680e+002
3.903517e+002, 8.427900e+002
3.908338e+002, 8.429028e+002
3.913159e+002, 8.427955e+002
3.917980e+002, 8.424536e+002
3.922801e+002, 8.418557e+002
3.927622e+002, 8.410709e+002
3.932444e+002, 8.398809e+002
3.937265e+002, 8.387299e+002
3.942086e+002, 8.380166e+002
3.946907e+002, 8.375456e+002
3.951728e+002, 8.367271e+002
3.956549e+002, 8.351833e+002
3.961371e+002, 8.331448e+002
3.966192e+002, 8.315875e+002
3.971013e+002, 8.309615e+002
3.975834e+002, 8.302733e+002
3.980655e+002, 8.292914e+002
3.985476e+002, 8.282998e+002
3.990298e+002, 8.277105e+002
3.995119e+002, 8.275831e+002
3.999940e+002, 8.274690e+002
4.004761e+002, 8.267646e+002
4.009582e+002, 8.253661e+002
4.014403e+002, 8.237147e+002
4.019225e+002, 8.214016e+002
4.024046e+002, 8.192555e+002
4.028867e+002, 8.175687e+002
4.033688e+002, 8.163704e+002
4.038509e+002, 8.156650e+002
4.043330e+002, 8.155377e+002
4.048152e+002, 8.158231e+002
4.052973e+002, 8.155404e+002
4.057794e+002, 8.140369e+002
4.062615e+002, 8.129404e+002
4.067436e+002, 8.125613e+002
4.072257e+002, 8.126810e+002
4.077079e+002, 8.132760e+002
4.081900e+002, 8.143090e+002
4.086721e+002, 8.152476e+002
4.091542e+002, 8.153812e+002
4.096363e+002, 8.146508e+002
4.101184e+002, 8.134290e+002
4.106006e+002, 8.111052e+002
4.110827e+002, 8.088665e+002
4.115648e+002, 8.071790e+002
4.120469e+002, 8.060770e+002
4.125290e+002, 8.055624e+002
4.130111e+002, 8.059465e+002
4.134933e+002, 8.068691e+002
4.139754e+002, 8.070880e+002
4.144575e+002, 8.063484e+002
4.149396e+002, 8.055933e+002
4.154217e+002, 8.050103e+002
4.159038e+002, 8.047673e+002
4.163860e+002, 8.052526e+002
4.168681e+002, 8.067672e+002
4.173502e+002, 8.083224e+002
4.178323e+002, 8.088922e+002
4.183144e+002, 8.085797e+002
4.187965e+002, 8.082811e+002
4.192787e+002, 8.083026e+002
4.197608e+002, 8.082706e+002
4.202429e+002, 8.077386e+002
4.207250e+002, 8.067470e+002
4.212071e+002, 8.056907e+002
4.216892e+002, 8.044865e+002
4.221714e+002, 8.033882e+002
4.226535e+002, 8.028731e+002
4.231356e+002, 8.029755e+002
4.236177e+002, 8.030129e+002
4.240998e+002, 8.023976e+002
4.245819e+002, 8.013756e+002
4.250641e+002, 8.010028e+002
4.255462e+002, 8.017065e+002
4.260283e+002, 8.025074e+002
4.265104e+002, 8.030604e+002
4.269925e+002, 8.034106e+002
4.274746e+002, 8.037440e+002
4.279568e+002, 8.041620e+002
4.284389e+002, 8.042734e+002
4.289210e+002, 8.034207e+002
4.294031e+002, 8.011124e+002
4.298852e+002, 7.991671e+002
4.303673e+002, 7.975345e+002
4.308495e+002, 7.962957e+002
4.313316e+002, 7.953538e+002
4.318137e+002, 7.948121e+002
4.322958e+002, 7.951363e+002
4.327779e+002, 7.968204e+002
4.332600e+002, 7.995778e+002
4.337422e+002, 8.010500e+002
4.342243e+002, 8.001199e+002
4.347064e+002, 7.991717e+002
4.351885e+002, 7.979251e+002
4.356706e+002, 7.970569e+002
4.361527e+002, 7.976874e+002
4.366349e+002, 7.999980e+002
4.371170e+002, 8.025516e+002
4.375991e+002, 8.030457e+002
4.380812e+002, 8.005464e+002
4.385633e+002, 7.994229e+002
4.390454e+002, 8.013072e+002
4.395276e+002, 8.030536e+002
4.400097e+002, 8.033814e+002
4.404918e+002, 8.025720e+002
4.409739e+002, 8.014449e+002
4.414560e+002, 8.004024e+002
4.419381e+002, 7.995145e+002
4.424203e+002, 7.990295e+002
4.429024e+002, 7.991281e+002
4.433845e+002, 7.991664e+002
4.438666e+002, 7.989272e+002
4.443487e+002, 7.985681e+002
4.448308e+002, 7.981096e+002
4.453130e+002, 7.975616e+002
4.457951e+002, 7.972449e+002
4.462772e+002, 7.975134e+002
4.467593e+002, 7.982738e+002
4.472414e+002, 7.990682e+002
4.477235e+002, 7.998972e+002
4.482057e+002, 8.006474e+002
4.486878e+002, 8.013082e+002
4.491699e+002, 8.018351e+002
4.496520e+002, 8.020422e+002
4.501341e+002, 8.015151e+002
4.506162e+002, 8.009870e+002
4.510984e+002, 8.012867e+002
4.515805e+002, 8.022751e+002
4.520626e+002, 8.031203e+002
4.525447e+002, 8.035372e+002
4.530268e+002, 8.035608e+002
4.535089e+002, 8.030703e+002
4.539911e+002, 8.018577e+002
4.544732e+002, 8.011433e+002
4.549553e+002, 8.015302e+002
4.554374e+002, 8.023521e+002
4.559195e+002, 8.031135e+002
4.564016e+002, 8.036847e+002
4.568838e+002, 8.037420e+002
4.573659e+002, 8.029408e+002
4.578480e+002, 8.013398e+002
4.583301e+002, 8.000135e+002
4.588122e+002, 7.988616e+002
4.592943e+002, 7.980436e+002
4.597765e+002, 7.979884e+002
4.602586e+002, 7.981448e+002
4.607407e+002, 7.978002e+002
4.612228e+002, 7.967220e+002
4.617049e+002, 7.951625e+002
4.621870e+002, 7.933515e+002
4.626692e+002, 7.908859e+002
4.631513e+002, 7.895305e+002
4.636334e+002, 7.904621e+002
4.641155e+002, 7.913004e+002
4.645976e+002, 7.909524e+002
4.650797e+002, 7.897109e+002
4.655619e+002, 7.883644e+002
4.660440e+002, 7.873469e+002
4.665261e+002, 7.866293e+002
4.670082e+002, 7.861653e+002
4.674903e+002, 7.860126e+002
4.679724e+002, 7.859557e+002
4.684546e+002, 7.861194e+002
4.689367e+002, 7.862370e+002
4.694188e+002, 7.861064e+002
4.699009e+002, 7.857061e+002
4.703830e+002, 7.851539e+002
4.708651e+002, 7.844095e+002
4.713473e+002, 7.835656e+002
4.718294e+002, 7.829537e+002
4.723115e+002, 7.825760e+002
4.727936e+002, 7.824627e+002
4.732757e+002, 7.829159e+002
4.737578e+002, 7.835951e+002
4.742400e+002, 7.838351e+002
4.747221e+002, 7.833536e+002
4.752042e+002, 7.827153e+002
4.756863e+002, 7.822825e+002
4.761684e+002, 7.819985e+002
4.766505e+002, 7.817843e+002
4.771327e+002, 7.816821e+002
4.776148e+002, 7.813704e+002
4.780969e+002, 7.803348e+002
4.785790e+002, 7.784492e+002
4.790611e+002, 7.768097e+002
4.795432e+002, 7.753626e+002
4.800254e+002, 7.742868e+002
4.805075e+002, 7.740023e+002
4.809896e+002, 7.742189e+002
4.814717e+002, 7.739822e+002
4.819538e+002, 7.726870e+002
4.824359e+002, 7.709521e+002
4.829181e+002, 7.705797e+002
4.834002e+002, 7.731464e+002
4.838823e+002, 7.748031e+002
4.843644e+002, 7.750439e+002
4.848465e+002, 7.747582e+002
4.853286e+002, 7.747197e+002
4.858108e+002, 7.748640e+002
4.862929e+002, 7.744235e+002
4.867750e+002, 7.725137e+002
4.872571e+002, 7.694143e+002
4.877392e+002, 7.675895e+002
4.882213e+002, 7.675463e+002
4.887035e+002, 7.680136e+002
4.891856e+002, 7.691906e+002
4.896677e+002, 7.703365e+002
4.901498e+002, 7.705436e+002
4.906319e+002, 7.695922e+002
4.911140e+002, 7.684166e+002
4.915962e+002, 7.680445e+002
4.920783e+002, 7.683508e+002
4.925604e+002, 7.682582e+002
4.930425e+002, 7.674387e+002
4.935246e+002, 7.666454e+002
4.940067e+002, 7.665471e+002
4.944889e+002, 7.668879e+002
4.949710e+002, 7.671173e+002
4.954531e+002, 7.670928e+002
4.959352e+002, 7.669445e+002
4.964173e+002, 7.666481e+002
4.968994e+002, 7.662912e+002
4.973816e+002, 7.662413e+002
4.978637e+002, 7.666793e+002
4.983458e+002, 7.672860e+002
4.988279e+002, 7.676300e+002
4.993100e+002, 7.676931e+002
4.997921e+002, 7.675524e+002
5.002743e+002, 7.672571e+002
5.007564e+002, 7.667201e+002
5.012385e+002, 7.654111e+002
5.017206e+002, 7.637615e+002
5.022027e+002, 7.631250e+002
5.026848e+002, 7.643505e+002
5.031670e+002, 7.666769e+002
5.036491e+002, 7.678021e+002
5.041312e+002, 7.665423e+002
5.046133e+002, 7.659903e+002
5.050954e+002, 7.662289e+002
5.055775e+002, 7.671326e+002
5.060597e+002, 7.693011e+002
5.065418e+002, 7.722352e+002
5.070239e+002, 7.741926e+002
5.075060e+002, 7.735095e+002
5.079881e+002, 7.708524e+002
5.084702e+002, 7.695042e+002
5.089524e+002, 7.700873e+002
5.094345e+002, 7.705760e+002
5.099166e+002, 7.701987e+002
5.103987e+002, 7.694938e+002
5.108808e+002, 7.689958e+002
5.113629e+002, 7.687923e+002
5.118451e+002, 7.683682e+002
5.123271e+002, 7.672609e+002
5.128093e+002, 7.656443e+002
5.132914e+002, 7.639738e+002
5.137735e+002, 7.622665e+002
5.142556e+002, 7.606336e+002
5.147377e+002, 7.590457e+002
5.152198e+002, 7.576213e+002
5.157020e+002, 7.567069e+002
5.161841e+002, 7.568571e+002
5.166662e+002, 7.567267e+002
5.171483e+002, 7.554114e+002
5.176304e+002, 7.535150e+002
5.181125e+002, 7.519934e+002
5.185947e+002, 7.510818e+002
5.190768e+002, 7.505676e+002
5.195589e+002, 7.503331e+002
5.200410e+002, 7.504951e+002
5.205231e+002, 7.497380e+002
5.210052e+002, 7.469574e+002
5.214874e+002, 7.446470e+002
5.219695e+002, 7.436604e+002
5.224516e+002, 7.435986e+002
5.229337e+002, 7.441511e+002
5.234158e+002, 7.451428e+002
5.238979e+002, 7.458564e+002
5.243801e+002, 7.449477e+002
5.248622e+002, 7.419469e+002
5.253443e+002, 7.398439e+002
5.258264e+002, 7.393373e+002
5.263085e+002, 7.391012e+002
5.267906e+002, 7.385098e+002
5.272728e+002, 7.377736e+002
5.277549e+002, 7.373828e+002
5.282370e+002, 7.376728e+002
5.287191e+002, 7.380724e+002
5.292012e+002, 7.378450e+002
5.296833e+002, 7.370179e+002
5.301655e+002, 7.359420e+002
5.306476e+002, 7.344719e+002
5.311297e+002, 7.331583e+002
5.316118e+002, 7.328232e+002
5.320939e+002, 7.333154e+002
5.325760e+002, 7.335881e+002
5.330582e+002, 7.334197e+002
5.335403e+002, 7.329742e+002
5.340224e+002, 7.322775e+002
5.345045e+002, 7.314025e+002
5.349866e+002, 7.305007e+002
5.354688e+002, 7.296251e+002
5.359509e+002, 7.288796e+002
5.364330e+002, 7.285022e+002
5.369151e+002, 7.288510e+002
5.373972e+002, 7.287064e+002
5.378793e+002, 7.277709e+002
5.383615e+002, 7.266673e+002
5.388436e+002, 7.256396e+002
5.393257e+002, 7.247318e+002
5.398078e+002, 7.238992e+002
5.402899e+002, 7.230923e+002
5.407720e+002, 7.224706e+002
5.412542e+002, 7.225599e+002
5.417363e+002, 7.237393e+002
5.422184e+002, 7.243232e+002
5.427005e+002, 7.233973e+002
5.431826e+002, 7.223499e+002
5.436647e+002, 7.221396e+002
5.441469e+002, 7.225627e+002
5.446290e+002, 7.226686e+002
5.451111e+002, 7.218334e+002
5.455932e+002, 7.205170e+002
5.460753e+002, 7.192783e+002
5.465574e+002, 7.181296e+002
5.470396e+002, 7.173718e+002
5.475217e+002, 7.173084e+002
5.480038e+002, 7.174437e+002
5.484859e+002, 7.168444e+002
5.489680e+002, 7.154141e+002
5.494501e+002, 7.144202e+002
5.499323e+002, 7.145098e+002
5.504144e+002, 7.147856e+002
5.508965e+002, 7.146506e+002
5.513786e+002, 7.140812e+002
5.518607e+002, 7.131366e+002
5.523428e+002, 7.118172e+002
5.528250e+002, 7.103202e+002
5.533071e+002, 7.091292e+002
5.537892e+002, 7.083008e+002
5.542713e+002, 7.076972e+002
5.547534e+002, 7.073641e+002
5.552355e+002, 7.071822e+002
5.557177e+002, 7.072953e+002
5.561998e+002, 7.075094e+002
5.566819e+002, 7.073396e+002
5.571640e+002, 7.064199e+002
5.576461e+002, 7.051173e+002
5.581282e+002, 7.043470e+002
5.586104e+002, 7.042570e+002
5.590925e+002, 7.036783e+002
5.595746e+002, 7.017232e+002
5.600567e+002, 6.997997e+002
5.605388e+002, 6.992206e+002
5.610209e+002, 6.998391e+002
5.615031e+002, 7.005643e+002
5.619852e+002, 7.011180e+002
5.624673e+002, 7.015000e+002
5.629494e+002, 7.016545e+002
5.634315e+002, 7.016174e+002
5.639136e+002, 7.015494e+002
5.643958e+002, 7.015077e+002
5.648779e+002, 7.014899e+002
5.653600e+002, 7.015051e+002
5.658421e+002, 7.016062e+002
5.663242e+002, 7.015653e+002
5.668063e+002, 7.014913e+002
5.672885e+002, 7.011718e+002
5.677706e+002, 7.002846e+002
5.682527e+002, 6.990806e+002
5.687348e+002, 6.980447e+002
5.692169e+002, 6.974069e+002
5.696990e+002, 6.971193e+002
5.701812e+002, 6.971760e+002
5.706633e+002, 6.977238e+002
5.711454e+002, 6.980193e+002
5.716275e+002, 6.977931e+002
5.721096e+002, 6.975211e+002
5.725917e+002, 6.973235e+002
5.730739e+002, 6.972719e+002
5.735560e+002, 6.975420e+002
5.740381e+002, 6.983511e+002
5.745202e+002, 6.992418e+002
5.750023e+002, 6.997281e+002
5.754844e+002, 6.998441e+002
5.759666e+002, 6.997201e+002
5.764487e+002, 6.993207e+002
5.769308e+002, 6.989112e+002
5.774129e+002, 6.988121e+002
5.778950e+002, 6.990303e+002
5.783771e+002, 6.990648e+002
5.788593e+002, 6.985664e+002
5.793414e+002, 6.982432e+002
5.798235e+002, 6.986313e+002
5.803056e+002, 6.993359e+002
5.807877e+002, 6.996491e+002
5.812698e+002, 6.993777e+002
5.817520e+002, 6.989960e+002
5.822341e+002, 6.991526e+002
5.827162e+002, 6.999412e+002
5.831984e+002, 7.003680e+002
5.836805e+002, 7.002169e+002
5.841626e+002, 6.999506e+002
5.846447e+002, 6.997098e+002
5.851268e+002, 6.994261e+002
5.856089e+002, 6.989931e+002
5.860911e+002, 6.983815e+002
5.865732e+002, 6.977235e+002
5.870553e+002, 6.969559e+002
5.875374e+002, 6.962204e+002
5.880195e+002, 6.962753e+002
5.885016e+002, 6.973895e+002
5.889838e+002, 6.982252e+002
5.894659e+002, 6.978206e+002
5.899480e+002, 6.965319e+002
5.904301e+002, 6.954828e+002
5.909122e+002, 6.945925e+002
5.913943e+002, 6.940953e+002
5.918765e+002, 6.945861e+002
5.923586e+002, 6.951931e+002
5.928407e+002, 6.948552e+002
5.933228e+002, 6.935710e+002
5.938049e+002, 6.920960e+002
5.942870e+002, 6.909396e+002
5.947692e+002, 6.901143e+002
5.952513e+002, 6.897126e+002
5.957334e+002, 6.902616e+002
5.962155e+002, 6.902884e+002
5.966976e+002, 6.890712e+002
5.971797e+002, 6.878108e+002
5.976619e+002, 6.875727e+002
5.981440e+002, 6.881260e+002
5.986261e+002, 6.882051e+002
5.991082e+002, 6.866385e+002
5.995903e+002, 6.845066e+002
6.000724e+002, 6.840341e+002
6.005546e+002, 6.852267e+002
6.010367e+002, 6.860341e+002
6.015188e+002, 6.857740e+002
6.020009e+002, 6.849207e+002
6.024830e+002, 6.839465e+002
6.029651e+002, 6.828513e+002
6.034473e+002, 6.818171e+002
6.039294e+002, 6.808718e+002
6.044115e+002, 6.799932e+002
6.048936e+002, 6.791614e+002
6.053757e+002, 6.783931e+002
6.058578e+002, 6.777771e+002
6.063400e+002, 6.773422e+002
6.068221e+002, 6.769023e+002
6.073042e+002, 6.761855e+002
6.077863e+002, 6.751609e+002
6.082684e+002, 6.741039e+002
6.087505e+002, 6.728967e+002
6.092327e+002, 6.718225e+002
6.097148e+002, 6.709213e+002
6.101969e+002, 6.702246e+002
6.106790e+002, 6.698490e+002
6.111611e+002, 6.698398e+002
6.116432e+002, 6.697939e+002
6.121254e+002, 6.694270e+002
6.126075e+002, 6.687350e+002
6.130896e+002, 6.675778e+002
6.135717e+002, 6.658574e+002
6.140538e+002, 6.643074e+002
6.145359e+002, 6.634249e+002
6.150181e+002, 6.629979e+002
6.155002e+002, 6.623635e+002
6.159823e+002, 6.611669e+002
6.164644e+002, 6.605443e+002
6.169465e+002, 6.615157e+002
6.174286e+002, 6.625598e+002
6.179108e+002, 6.621052e+002
6.183929e+002, 6.604293e+002
6.188750e+002, 6.589580e+002
6.193571e+002, 6.586063e+002
6.198392e+002, 6.589380e+002
6.203214e+002, 6.588198e+002
6.208035e+002, 6.581698e+002
6.212856e+002, 6.573270e+002
6.217677e+002, 6.561498e+002
6.222498e+002, 6.549576e+002
6.227319e+002, 6.539307e+002
6.232141e+002, 6.530250e+002
6.236962e+002, 6.520599e+002
6.241783e+002, 6.507625e+002
6.246604e+002, 6.497518e+002
6.251425e+002, 6.498806e+002
6.256246e+002, 6.508184e+002
6.261068e+002, 6.515566e+002
6.265889e+002, 6.519124e+002
6.270710e+002, 6.516857e+002
6.275531e+002, 6.504828e+002
6.280352e+002, 6.483810e+002
6.285173e+002, 6.471536e+002
6.289995e+002, 6.472205e+002
6.294816e+002, 6.474949e+002
6.299637e+002, 6.479293e+002
6.304458e+002, 6.483548e+002
6.309279e+002, 6.485806e+002
6.314100e+002, 6.486091e+002
6.318922e+002, 6.486288e+002
6.323743e+002, 6.488218e+002
6.328564e+002, 6.491021e+002
6.333385e+002, 6.492323e+002
6.338206e+002, 6.493065e+002
6.343027e+002, 6.487581e+002
6.347849e+002, 6.465940e+002
6.352670e+002, 6.445252e+002
6.357491e+002, 6.445184e+002
6.362312e+002, 6.463397e+002
6.367133e+002, 6.475508e+002
6.371954e+002, 6.470892e+002
6.376776e+002, 6.460223e+002
6.381597e+002, 6.450253e+002
6.386418e+002, 6.441192e+002
6.391239e+002, 6.433928e+002
6.396060e+002, 6.428797e+002
6.400881e+002, 6.422112e+002
6.405703e+002, 6.407947e+002
6.410524e+002, 6.384778e+002
6.415345e+002, 6.372725e+002
6.420166e+002, 6.386539e+002
6.424987e+002, 6.394330e+002
6.429808e+002, 6.386355e+002
6.434630e+002, 6.371412e+002
6.439451e+002, 6.357415e+002
6.444272e+002, 6.346311e+002
6.449093e+002, 6.337531e+002
6.453914e+002, 6.330460e+002
6.458735e+002, 6.325419e+002
6.463557e+002, 6.324202e+002
6.468378e+002, 6.326962e+002
6.473199e+002, 6.328920e+002
6.478020e+002, 6.328633e+002
6.482841e+002, 6.325744e+002
6.487662e+002, 6.318577e+002
6.492484e+002, 6.305756e+002
6.497305e+002, 6.296348e+002
6.502126e+002, 6.293152e+002
6.506947e+002, 6.291427e+002
6.511768e+002, 6.288390e+002
6.516589e+002, 6.285005e+002
6.521411e+002, 6.282224e+002
6.526232e+002, 6.280664e+002
6.531053e+002, 6.283221e+002
6.535874e+002, 6.297977e+002
6.540695e+002, 6.325233e+002
6.545516e+002, 6.331986e+002
6.550338e+002, 6.309020e+002
6.555159e+002, 6.283852e+002
6.559980e+002, 6.265341e+002
6.564801e+002, 6.252491e+002
6.569622e+002, 6.246424e+002
6.574443e+002, 6.248015e+002
6.579265e+002, 6.247718e+002
6.584086e+002, 6.240348e+002
6.588907e+002, 6.229626e+002
6.593728e+002, 6.215129e+002
6.598549e+002, 6.200077e+002
6.603370e+002, 6.197998e+002
6.608192e+002, 6.215922e+002
6.613013e+002, 6.242015e+002
6.617834e+002, 6.255975e+002
6.622655e+002, 6.256478e+002
6.627476e+002, 6.249893e+002
6.632297e+002, 6.227321e+002
6.637119e+002, 6.207370e+002
6.641940e+002, 6.198224e+002
6.646761e+002, 6.193959e+002
6.651582e+002, 6.185519e+002
6.656403e+002, 6.170497e+002
6.661224e+002, 6.157450e+002
6.666046e+002, 6.156808e+002
6.670867e+002, 6.162655e+002
6.675688e+002, 6.159988e+002
6.680509e+002, 6.147962e+002
6.685330e+002, 6.135101e+002
6.690151e+002, 6.124844e+002
6.694973e+002, 6.117447e+002
6.699794e+002, 6.113995e+002
6.704615e+002, 6.117224e+002
6.709436e+002, 6.116893e+002
6.714257e+002, 6.108490e+002
6.719078e+002, 6.100914e+002
6.723900e+002, 6.099723e+002
6.728721e+002, 6.102233e+002
6.733542e+002, 6.104266e+002
6.738363e+002, 6.104178e+002
6.743184e+002, 6.101078e+002
6.748005e+002, 6.092228e+002
6.752827e+002, 6.078431e+002
6.757648e+002, 6.067843e+002
6.762469e+002, 6.060585e+002
6.767290e+002, 6.057197e+002
6.772111e+002, 6.061205e+002
6.776932e+002, 6.067214e+002
6.781754e+002, 6.064999e+002
6.786575e+002, 6.052660e+002
6.791396e+002, 6.042912e+002
6.796217e+002, 6.041867e+002
6.801038e+002, 6.041660e+002
6.805859e+002, 6.034847e+002
6.810681e+002, 6.024288e+002
6.815502e+002, 6.017275e+002
6.820323e+002, 6.016684e+002
6.825144e+002, 6.019697e+002
6.829965e+002, 6.024013e+002
6.834786e+002, 6.030251e+002
6.839608e+002, 6.026451e+002
6.844429e+002, 6.005016e+002
6.849250e+002, 5.987242e+002
6.854071e+002, 5.983766e+002
6.858892e+002, 5.987263e+002
6.863713e+002, 5.991676e+002
6.868535e+002, 5.996565e+002
6.873356e+002, 5.998336e+002
6.878177e+002, 5.995215e+002
6.882998e+002, 5.988326e+002
6.887819e+002, 5.974297e+002
6.892640e+002, 5.957119e+002
6.897462e+002, 5.951148e+002
6.902283e+002, 5.962142e+002
6.907104e+002, 5.977663e+002
6.911925e+002, 5.979236e+002
6.916746e+002, 5.964778e+002
6.921567e+002, 5.955716e+002
6.926389e+002, 5.960453e+002
6.931210e+002, 5.958925e+002
6.936031e+002, 5.936783e+002
6.940852e+002, 5.911924e+002
6.945673e+002, 5.904937e+002
6.950494e+002, 5.917330e+002
6.955316e+002, 5.929514e+002
6.960137e+002, 5.929686e+002
6.964958e+002, 5.923407e+002
6.969779e+002, 5.916273e+002
6.974600e+002, 5.908952e+002
6.979421e+002, 5.904417e+002
6.984243e+002, 5.904070e+002
6.989064e+002, 5.903733e+002
6.993885e+002, 5.897425e+002
6.998706e+002, 5.884239e+002
7.003527e+002, 5.877051e+002
7.008348e+002, 5.881614e+002
7.013170e+002, 5.885255e+002
7.017991e+002, 5.887626e+002
7.022812e+002, 5.886889e+002
7.027633e+002, 5.879149e+002
7.032454e+002, 5.865554e+002
7.037275e+002, 5.854493e+002
7.042097e+002, 5.853514e+002
7.046918e+002, 5.856138e+002
7.051739e+002, 5.850306e+002
7.056560e+002, 5.837914e+002
7.061381e+002, 5.832971e+002
7.066202e+002, 5.840608e+002
7.071024e+002, 5.849271e+002
7.075845e+002, 5.846611e+002
7.080666e+002, 5.832820e+002
7.085487e+002, 5.822609e+002
7.090308e+002, 5.818232e+002
7.095129e+002, 5.814156e+002
7.099951e+002, 5.807316e+002
7.104772e+002, 5.802092e+002
7.109593e+002, 5.803766e+002
7.114414e+002, 5.810959e+002
7.119235e+002, 5.817521e+002
7.124056e+002, 5.820986e+002
7.128878e+002, 5.819937e+002
7.133699e+002, 5.808790e+002
7.138520e+002, 5.789606e+002
7.143341e+002, 5.777913e+002
7.148162e+002, 5.777350e+002
7.152983e+002, 5.781032e+002
7.157805e+002, 5.784486e+002
7.162626e+002, 5.787497e+002
7.167447e+002, 5.788680e+002
7.172268e+002, 5.789125e+002
7.177089e+002, 5.786449e+002
7.181910e+002, 5.778021e+002
7.186732e+002, 5.768541e+002
7.191553e+002, 5.760848e+002
7.196374e+002, 5.755016e+002
7.201195e+002, 5.750271e+002
7.206016e+002, 5.746338e+002
7.210837e+002, 5.742922e+002
7.215659e+002, 5.739250e+002
7.220480e+002, 5.735629e+002
7.225301e+002, 5.734891e+002
7.230122e+002, 5.738143e+002
7.234943e+002, 5.738468e+002
7.239764e+002, 5.730364e+002
7.244586e+002, 5.717559e+002
7.249407e+002, 5.709356e+002
7.254228e+002, 5.706151e+002
7.259049e+002, 5.706383e+002
7.263870e+002, 5.714730e+002
7.268691e+002, 5.721725e+002
7.273513e+002, 5.720353e+002
7.278334e+002, 5.714583e+002
7.283155e+002, 5.712598e+002
7.287976e+002, 5.716846e+002
7.292797e+002, 5.719825e+002
7.297618e+002, 5.711072e+002
7.302440e+002, 5.694577e+002
7.307261e+002, 5.685977e+002
7.312082e+002, 5.686275e+002
7.316903e+002, 5.684561e+002
7.321724e+002, 5.675096e+002
7.326545e+002, 5.663932e+002
7.331367e+002, 5.661242e+002
7.336188e+002, 5.670052e+002
7.341009e+002, 5.669429e+002
7.345830e+002, 5.646996e+002
7.350651e+002, 5.629990e+002
7.355472e+002, 5.632687e+002
7.360294e+002, 5.642920e+002
7.365115e+002, 5.646274e+002
7.369936e+002, 5.640984e+002
7.374757e+002, 5.635225e+002
7.379578e+002, 5.635928e+002
7.384399e+002, 5.639269e+002
7.389221e+002, 5.636758e+002
7.394042e+002, 5.628820e+002
7.398863e+002, 5.622086e+002
7.403684e+002, 5.618206e+002
7.408505e+002, 5.615731e+002
7.413326e+002, 5.613128e+002
7.418148e+002, 5.610608e+002
7.422969e+002, 5.610718e+002
7.427790e+002, 5.619454e+002
7.432611e+002, 5.622315e+002
7.437432e+002, 5.610310e+002
7.442253e+002, 5.598018e+002
7.447075e+002, 5.599972e+002
7.451896e+002, 5.611046e+002
7.456717e+002, 5.614323e+002
7.461538e+002, 5.600499e+002
7.466359e+002, 5.581945e+002
7.471180e+002, 5.570314e+002
7.476002e+002, 5.566218e+002
7.480823e+002, 5.576572e+002
7.485644e+002, 5.603116e+002
7.490465e+002, 5.620517e+002
7.495286e+002, 5.612150e+002
7.500107e+002, 5.587560e+002
7.504929e+002, 5.569069e+002
7.509750e+002, 5.558942e+002
7.514571e+002, 5.549362e+002
7.519392e+002, 5.534261e+002
7.524213e+002, 5.526382e+002
7.529034e+002, 5.538683e+002
7.533856e+002, 5.557624e+002
7.538677e+002, 5.563513e+002
7.543498e+002, 5.552322e+002
7.548319e+002, 5.539188e+002
7.553140e+002, 5.537991e+002
7.557961e+002, 5.540585e+002
7.562783e+002, 5.530124e+002
7.567604e+002, 5.509565e+002
7.572425e+002, 5.497367e+002
7.577246e+002, 5.500052e+002
7.582067e+002, 5.509608e+002
7.586888e+002, 5.517504e+002
7.591710e+002, 5.523739e+002
7.596531e+002, 5.527034e+002
7.601352e+002, 5.527274e+002
7.606173e+002, 5.524517e+002
7.610994e+002, 5.515391e+002
7.615815e+002, 5.506268e+002
7.620637e+002, 5.502478e+002
7.625458e+002, 5.502955e+002
7.630279e+002, 5.502831e+002
7.635100e+002, 5.500297e+002
7.639921e+002, 5.496456e+002
7.644742e+002, 5.490452e+002
7.649564e+002, 5.484397e+002
7.654385e+002, 5.483643e+002
7.659206e+002, 5.487933e+002
7.664027e+002, 5.490685e+002
7.668848e+002, 5.487758e+002
7.673669e+002, 5.480592e+002
7.678491e+002, 5.471990e+002
7.683312e+002, 5.460925e+002
7.688133e+002, 5.452421e+002
7.692954e+002, 5.447805e+002
7.697775e+002, 5.444134e+002
7.702596e+002, 5.441565e+002
7.707418e+002, 5.438436e+002
7.712239e+002, 5.431228e+002
7.717060e+002, 5.418812e+002
7.721881e+002, 5.410466e+002
7.726702e+002, 5.412034e+002
7.731523e+002, 5.416895e+002
7.736345e+002, 5.421531e+002
7.741166e+002, 5.424887e+002
7.745987e+002, 5.425142e+002
7.750808e+002, 5.421977e+002
7.755629e+002, 5.417209e+002
7.760450e+002, 5.412117e+002
7.765272e+002, 5.407245e+002
7.770093e+002, 5.405604e+002
7.774914e+002, 5.407899e+002
7.779735e+002, 5.409960e+002
7.784556e+002, 5.411929e+002
7.789377e+002, 5.411738e+002
7.794199e+002, 5.405515e+002
7.799020e+002, 5.395082e+002
7.803841e+002, 5.389357e+002
7.808662e+002, 5.389842e+002
7.813483e+002, 5.393278e+002
7.818304e+002, 5.403301e+002
7.823126e+002, 5.412315e+002
7.827947e+002, 5.414368e+002
7.832768e+002, 5.409910e+002
7.837589e+002, 5.400123e+002
7.842410e+002, 5.385165e+002
7.847231e+002, 5.371960e+002
7.852053e+002, 5.372883e+002
7.856874e+002, 5.382956e+002
7.861695e+002, 5.379999e+002
7.866516e+002, 5.362236e+002
7.871337e+002, 5.348144e+002
7.876158e+002, 5.346816e+002
7.880980e+002, 5.351025e+002
7.885801e+002, 5.349760e+002
7.890622e+002, 5.341871e+002
7.895443e+002, 5.336223e+002
7.900264e+002, 5.331217e+002
7.905085e+002, 5.330495e+002
7.909907e+002, 5.339813e+002
7.914728e+002, 5.350232e+002
7.919549e+002, 5.352214e+002
7.924370e+002, 5.346782e+002
7.929191e+002, 5.343470e+002
7.934012e+002, 5.349741e+002
7.938834e+002, 5.355546e+002
7.943655e+002, 5.347968e+002
7.948476e+002, 5.333333e+002
7.953297e+002, 5.326857e+002
7.958118e+002, 5.329611e+002
7.962939e+002, 5.328837e+002
7.967761e+002, 5.315316e+002
7.972582e+002, 5.296688e+002
7.977403e+002, 5.293046e+002
7.982224e+002, 5.309778e+002
7.987045e+002, 5.318222e+002
7.991866e+002, 5.313707e+002
7.996688e+002, 5.307361e+002
8.001509e+002, 5.303732e+002
8.006330e+002, 5.301362e+002
8.011151e+002, 5.297971e+002
8.015972e+002, 5.293218e+002
8.020793e+002, 5.291353e+002
8.025615e+002, 5.297302e+002
8.030436e+002, 5.302675e+002
8.035257e+002, 5.299814e+002
8.040078e+002, 5.294166e+002
8.044899e+002, 5.296422e+002
8.049720e+002, 5.306610e+002
8.054542e+002, 5.312191e+002
8.059363e+002, 5.301750e+002
8.064184e+002, 5.283160e+002
8.069005e+002, 5.274601e+002
8.073826e+002, 5.275568e+002
8.078647e+002, 5.274749e+002
8.083469e+002, 5.269760e+002
8.088290e+002, 5.265115e+002
8.093111e+002, 5.264005e+002
8.097932e+002, 5.265479e+002
8.102753e+002, 5.266681e+002
8.107574e+002, 5.267155e+002
8.112396e+002, 5.268297e+002
8.117217e+002, 5.274149e+002
8.122038e+002, 5.276212e+002
8.126859e+002, 5.266446e+002
8.131680e+002, 5.252912e+002
8.136501e+002, 5.247433e+002
8.141323e+002, 5.251912e+002
8.146144e+002, 5.256616e+002
8.150965e+002, 5.256107e+002
8.155786e+002, 5.252268e+002
8.160607e+002, 5.245806e+002
8.165428e+002, 5.237928e+002
8.170250e+002, 5.231675e+002
8.175071e+002, 5.227714e+002
8.179892e+002, 5.224770e+002
8.184713e+002, 5.221664e+002
8.189534e+002, 5.218845e+002
8.194355e+002, 5.218383e+002
8.199177e+002, 5.221088e+002
8.203998e+002, 5.222286e+002
8.208819e+002, 5.221361e+002
8.213640e+002, 5.219025e+002
8.218461e+002, 5.214899e+002
8.223282e+002, 5.209915e+002
8.228104e+002, 5.205761e+002
8.232925e+002, 5.202396e+002
8.237746e+002, 5.200291e+002
8.242567e+002, 5.201244e+002
8.247388e+002, 5.201767e+002
8.252209e+002, 5.199746e+002
8.257031e+002, 5.196133e+002
8.261852e+002, 5.191778e+002
8.266673e+002, 5.187263e+002
8.271494e+002, 5.184437e+002
8.276315e+002, 5.186976e+002
8.281136e+002, 5.189527e+002
8.285958e+002, 5.180049e+002
8.290779e+002, 5.161643e+002
8.295600e+002, 5.149416e+002
8.300421e+002, 5.146323e+002
8.305242e+002, 5.148271e+002
8.310063e+002, 5.153047e+002
8.314885e+002, 5.159300e+002
8.319706e+002, 5.163019e+002
8.324527e+002, 5.164299e+002
8.329348e+002, 5.162603e+002
8.334169e+002, 5.154844e+002
8.338990e+002, 5.147974e+002
8.343812e+002, 5.145411e+002
8.348633e+002, 5.144802e+002
8.353454e+002, 5.143019e+002
8.358275e+002, 5.139740e+002
8.363096e+002, 5.137487e+002
8.367917e+002, 5.138458e+002
8.372739e+002, 5.139262e+002
8.377560e+002, 5.138649e+002
8.382381e+002, 5.136115e+002
8.387202e+002, 5.130273e+002
8.392023e+002, 5.121596e+002
8.396844e+002, 5.112404e+002
8.401666e+002, 5.103745e+002
8.406487e+002, 5.097298e+002
8.411308e+002, 5.096898e+002
8.416129e+002, 5.101817e+002
8.420950e+002, 5.108145e+002
8.425771e+002, 5.115899e+002
8.430593e+002, 5.119337e+002
8.435414e+002, 5.114725e+002
8.440235e+002, 5.105247e+002
8.445056e+002, 5.096386e+002
8.449877e+002, 5.087992e+002
8.454698e+002, 5.081237e+002
8.459520e+002, 5.077234e+002
8.464341e+002, 5.073481e+002
8.469162e+002, 5.068364e+002
8.473983e+002, 5.064088e+002
8.478804e+002, 5.063890e+002
8.483625e+002, 5.066771e+002
8.488447e+002, 5.066791e+002
8.493268e+002, 5.059234e+002
8.498089e+002, 5.052870e+002
8.502910e+002, 5.054443e+002
8.507731e+002, 5.058590e+002
8.512552e+002, 5.059622e+002
8.517374e+002, 5.057211e+002
8.522195e+002, 5.052319e+002
8.527016e+002, 5.045375e+002
8.531837e+002, 5.038780e+002
8.536658e+002, 5.038258e+002
8.541479e+002, 5.041118e+002
8.546301e+002, 5.031787e+002
8.551122e+002, 5.009776e+002
8.555943e+002, 4.993474e+002
8.560764e+002, 4.989902e+002
8.565585e+002, 4.991200e+002
8.570406e+002, 4.988517e+002
8.575228e+002, 4.982690e+002
8.580049e+002, 4.984137e+002
8.584870e+002, 5.001837e+002
8.589691e+002, 5.011533e+002
8.594512e+002, 5.005052e+002
8.599333e+002, 4.996694e+002
8.604155e+002, 4.995169e+002
8.608976e+002, 4.996739e+002
8.613797e+002, 4.993194e+002
8.618618e+002, 4.982065e+002
8.623439e+002, 4.972210e+002
8.628260e+002, 4.968798e+002
8.633082e+002, 4.966670e+002
8.637903e+002, 4.962044e+002
8.642724e+002, 4.955661e+002
8.647545e+002, 4.948097e+002
8.652366e+002, 4.940117e+002
8.657188e+002, 4.934581e+002
8.662009e+002, 4.933903e+002
8.666830e+002, 4.936548e+002
8.671651e+002, 4.941281e+002
8.676472e+002, 4.947151e+002
8.681293e+002, 4.947229e+002
8.686115e+002, 4.940205e+002
8.690936e+002, 4.933503e+002
8.695757e+002, 4.931749e+002
8.700578e+002, 4.932554e+002
8.705399e+002, 4.931147e+002
8.710220e+002, 4.927370e+002
8.715042e+002, 4.922078e+002
8.719863e+002, 4.914881e+002
8.724684e+002, 4.906883e+002
8.729505e+002, 4.898068e+002
8.734326e+002, 4.888907e+002
8.739147e+002, 4.878491e+002
8.743969e+002, 4.867640e+002
8.748790e+002, 4.861394e+002
8.753611e+002, 4.864900e+002
8.758432e+002, 4.867293e+002
8.763253e+002, 4.862594e+002
8.768074e+002, 4.857090e+002
8.772896e+002, 4.857790e+002
8.777717e+002, 4.862042e+002
8.782538e+002, 4.861490e+002
8.787359e+002, 4.853176e+002
8.792180e+002, 4.846263e+002
8.797001e+002, 4.853749e+002
8.801823e+002, 4.866037e+002
8.806644e+002, 4.863018e+002
8.811465e+002, 4.848071e+002
8.816286e+002, 4.837470e+002
8.821107e+002, 4.835400e+002
8.825928e+002, 4.834024e+002
8.830750e+002, 4.826020e+002
8.835571e+002, 4.814471e+002
8.840392e+002, 4.811146e+002
8.845213e+002, 4.818199e+002
8.850034e+002, 4.820547e+002
8.854855e+002, 4.814810e+002
8.859677e+002, 4.809102e+002
8.864498e+002, 4.806762e+002
8.869319e+002, 4.807554e+002
8.874140e+002, 4.813218e+002
8.878961e+002, 4.826064e+002
8.883782e+002, 4.828395e+002
8.888604e+002, 4.806721e+002
8.893425e+002, 4.791414e+002
8.898246e+002, 4.796644e+002
8.903067e+002, 4.807011e+002
8.907888e+002, 4.811858e+002
8.912709e+002, 4.809529e+002
8.917531e+002, 4.798317e+002
8.922352e+002, 4.773657e+002
8.927173e+002, 4.753165e+002
8.931994e+002, 4.754501e+002
8.936815e+002, 4.762388e+002
8.941636e+002, 4.757632e+002
8.946458e+002, 4.743952e+002
8.951279e+002, 4.734398e+002
8.956100e+002, 4.733037e+002
8.960921e+002, 4.734905e+002
8.965742e+002, 4.735687e+002
8.970563e+002, 4.735620e+002
8.975385e+002, 4.735027e+002
8.980206e+002, 4.733994e+002
8.985027e+002, 4.734877e+002
8.989848e+002, 4.738534e+002
8.994669e+002, 4.738289e+002
8.999490e+002, 4.728380e+002
9.004312e+002, 4.714510e+002
9.009133e+002, 4.710274e+002
9.013954e+002, 4.718482e+002
9.018775e+002, 4.723178e+002
9.023596e+002, 4.721068e+002
9.028417e+002, 4.721239e+002
9.033239e+002, 4.733360e+002
9.038060e+002, 4.743325e+002
9.042881e+002, 4.733187e+002
9.047702e+002, 4.707096e+002
9.052523e+002, 4.692014e+002
9.057344e+002, 4.699485e+002
9.062166e+002, 4.705915e+002
9.066987e+002, 4.704618e+002
9.071808e+002, 4.701394e+002
9.076629e+002, 4.700074e+002
9.081450e+002, 4.700037e+002
9.086271e+002, 4.699436e+002
9.091093e+002, 4.697806e+002
9.095914e+002, 4.696180e+002
9.100735e+002, 4.697189e+002
9.105556e+002, 4.696920e+002
9.110377e+002, 4.688139e+002
9.115198e+002, 4.675640e+002
9.120020e+002, 4.670629e+002
9.124841e+002, 4.673727e+002
9.129662e+002, 4.676025e+002
9.134483e+002, 4.671726e+002
9.139304e+002, 4.664887e+002
9.144125e+002, 4.661978e+002
9.148947e+002, 4.662766e+002
9.153768e+002, 4.667060e+002
9.158589e+002, 4.675280e+002
9.163410e+002, 4.676460e+002
9.168231e+002, 4.665297e+002
9.173052e+002, 4.650793e+002
9.177874e+002, 4.642495e+002
9.182695e+002, 4.640140e+002
9.187516e+002, 4.641878e+002
9.192337e+002, 4.651029e+002
9.197158e+002, 4.656425e+002
9.201979e+002, 4.657076e+002
9.206801e+002, 4.653691e+002
9.211622e+002, 4.641058e+002
9.216443e+002, 4.626921e+002
9.221264e+002, 4.625757e+002
9.226085e+002, 4.640485e+002
9.230906e+002, 4.649526e+002
9.235728e+002, 4.644258e+002
9.240549e+002, 4.639807e+002
9.245370e+002, 4.644076e+002
9.250191e+002, 4.649882e+002
9.255012e+002, 4.650114e+002
9.259833e+002, 4.645466e+002
9.264655e+002, 4.640460e+002
9.269476e+002, 4.636625e+002
9.274297e+002, 4.633232e+002
9.279118e+002, 4.629658e+002
9.283939e+002, 4.626327e+002
9.288760e+002, 4.624410e+002
9.293582e+002, 4.622973e+002
9.298403e+002, 4.619141e+002
9.303224e+002, 4.612701e+002
9.308045e+002, 4.607654e+002
9.312866e+002, 4.607531e+002
9.317687e+002, 4.610122e+002
9.322509e+002, 4.612050e+002
9.327330e+002, 4.613145e+002
9.332151e+002, 4.612577e+002
9.336972e+002, 4.610288e+002
9.341793e+002, 4.605876e+002
9.346614e+002, 4.598839e+002
9.351436e+002, 4.592035e+002
9.356257e+002, 4.590097e+002
9.361078e+002, 4.592687e+002
9.365899e+002, 4.592901e+002
9.370720e+002, 4.590822e+002
9.375541e+002, 4.585635e+002
9.380363e+002, 4.575870e+002
9.385184e+002, 4.565403e+002
9.390005e+002, 4.555638e+002
9.394826e+002, 4.547875e+002
9.399647e+002, 4.546387e+002
9.404468e+002, 4.555324e+002
9.409290e+002, 4.559066e+002
9.414111e+002, 4.553992e+002
9.418932e+002, 4.548470e+002
9.423753e+002, 4.544604e+002
9.428574e+002, 4.541501e+002
9.433395e+002, 4.538969e+002
9.438217e+002, 4.536532e+002
9.443038e+002, 4.531961e+002
9.447859e+002, 4.521250e+002
9.452680e+002, 4.515275e+002
9.457501e+002, 4.523251e+002
9.462322e+002, 4.532328e+002
9.467144e+002, 4.532477e+002
9.471965e+002, 4.526965e+002
9.476786e+002, 4.521034e+002
9.481607e+002, 4.516443e+002
9.486428e+002, 4.515443e+002
9.491249e+002, 4.524189e+002
9.496071e+002, 4.531029e+002
9.500892e+002, 4.517331e+002
9.505713e+002, 4.496811e+002
9.510534e+002, 4.495634e+002
9.515355e+002, 4.511652e+002
9.520176e+002, 4.524443e+002
9.524998e+002, 4.524850e+002
9.529819e+002, 4.519527e+002
9.534640e+002, 4.515753e+002
9.539461e+002, 4.512600e+002
9.544282e+002, 4.504846e+002
9.549103e+002, 4.493943e+002
9.553925e+002, 4.492798e+002
9.558746e+002, 4.504132e+002
9.563567e+002, 4.517480e+002
9.568388e+002, 4.526064e+002
9.573209e+002, 4.530215e+002
9.578030e+002, 4.530266e+002
9.582852e+002, 4.525917e+002
9.587673e+002, 4.519915e+002
9.592494e+002, 4.510541e+002
9.597315e+002, 4.506785e+002
9.602136e+002, 4.512767e+002
9.606957e+002, 4.522780e+002
9.611779e+002, 4.533155e+002
9.616600e+002, 4.542738e+002
9.621421e+002, 4.544739e+002
9.626242e+002, 4.532975e+002
9.631063e+002, 4.525960e+002
9.635884e+002, 4.524276e+002
9.640706e+002, 4.526930e+002
9.645527e+002, 4.538546e+002
9.650348e+002, 4.550876e+002
9.655169e+002, 4.551944e+002
9.659990e+002, 4.542787e+002
9.664811e+002, 4.541756e+002
9.669633e+002, 4.560568e+002
9.674454e+002, 4.574617e+002
9.679275e+002, 4.574833e+002
9.684096e+002, 4.572116e+002
9.688917e+002, 4.572772e+002
9.693738e+002, 4.576107e+002
9.698560e+002, 4.579707e+002
9.703381e+002, 4.583175e+002
9.708202e+002, 4.588963e+002
9.713023e+002, 4.601155e+002
9.717844e+002, 4.612721e+002
9.722665e+002, 4.618725e+002
9.727487e+002, 4.621664e+002
9.732308e+002, 4.623371e+002
9.737129e+002, 4.624897e+002
9.741950e+002, 4.627914e+002
9.746771e+002, 4.633058e+002
9.751592e+002, 4.638891e+002
9.756414e+002, 4.644991e+002
9.761235e+002, 4.650350e+002
9.766056e+002, 4.652308e+002
9.770877e+002, 4.652694e+002
9.775698e+002, 4.657157e+002
9.780519e+002, 4.665515e+002
9.785341e+002, 4.670870e+002
9.790162e+002, 4.668971e+002
9.794983e+002, 4.663889e+002
9.799804e+002, 4.661557e+002
9.804625e+002, 4.661070e+002
9.809446e+002, 4.658399e+002
9.814268e+002, 4.653828e+002
9.819089e+002, 4.650997e+002
9.823910e+002, 4.650884e+002
9.828731e+002, 4.652249e+002
9.833552e+002, 4.654966e+002
9.838373e+002, 4.655829e+002
9.843195e+002, 4.644771e+002
9.848016e+002, 4.621019e+002
9.852837e+002, 4.602555e+002
9.857658e+002, 4.589696e+002
9.862479e+002, 4.584424e+002
9.867300e+002, 4.589225e+002
9.872122e+002, 4.597092e+002
9.876943e+002, 4.602391e+002
9.881764e+002, 4.604135e+002
9.886585e+002, 4.595334e+002
9.891406e+002, 4.566966e+002
9.896227e+002, 4.555093e+002
9.901049e+002, 4.570808e+002
9.905870e+002, 4.585326e+002
9.910691e+002, 4.585367e+002
9.915512e+002, 4.579969e+002
9.920333e+002, 4.579951e+002
9.925154e+002, 4.585127e+002
9.929976e+002, 4.588972e+002
9.934797e+002, 4.588506e+002
9.939618e+002, 4.591273e+002
9.944439e+002, 4.599283e+002
9.949260e+002, 4.608813e+002
9.954081e+002, 4.618193e+002
9.958903e+002, 4.628000e+002
9.963724e+002, 4.639024e+002
9.968545e+002, 4.651317e+002
9.973366e+002, 4.664641e+002
9.978187e+002, 4.679819e+002
9.983008e+002, 4.694807e+002
9.987830e+002, 4.708084e+002
9.992651e+002, 4.721925e+002
9.997472e+002, 4.739940e+002
1.000229e+003, 4.758882e+002
1.000711e+003, 4.771448e+002
1.001194e+003, 4.776485e+002
1.001676e+003, 4.786421e+002
1.002158e+003, 4.809831e+002
1.002640e+003, 4.835874e+002
1.003122e+003, 4.862892e+002
1.003604e+003, 4.885807e+002
1.004086e+003, 4.897023e+002
1.004568e+003, 4.900266e+002
1.005050e+003, 4.905393e+002
1.005533e+003, 4.915466e+002
1.006015e+003, 4.924873e+002
1.006497e+003, 4.925884e+002
1.006979e+003, 4.928190e+002
1.007461e+003, 4.946776e+002
1.007943e+003, 4.969964e+002
1.008425e+003, 4.977104e+002
1.008907e+003, 4.970567e+002
1.009390e+003, 4.967025e+002
1.009872e+003, 4.973574e+002
1.010354e+003, 4.982975e+002
1.010836e+003, 4.990781e+002
1.011318e+003, 4.995158e+002
1.011800e+003, 4.991530e+002
1.012282e+003, 4.982409e+002
1.012764e+003, 4.972731e+002
1.013246e+003, 4.963995e+002
1.013729e+003, 4.959106e+002
1.014211e+003, 4.959727e+002
1.014693e+003, 4.959902e+002
1.015175e+003, 4.951199e+002
1.015657e+003, 4.936069e+002
1.016139e+003, 4.921518e+002
1.016621e+003, 4.907192e+002
1.017103e+003, 4.891398e+002
1.017586e+003, 4.873763e+002
1.018068e+003, 4.854111e+002
1.018550e+003, 4.832527e+002
1.019032e+003, 4.808401e+002
1.019514e+003, 4.779779e+002
1.019996e+003, 4.747625e+002
1.020478e+003, 4.719846e+002
1.020960e+003, 4.696306e+002
1.021442e+003, 4.674095e+002
1.021925e+003, 4.652833e+002
1.022407e+003, 4.629193e+002
1.022889e+003, 4.600380e+002
1.023371e+003, 4.570009e+002
1.023853e+003, 4.544698e+002
1.024335e+003, 4.524484e+002
1.024817e+003, 4.511619e+002
1.025299e+003, 4.508162e+002
1.025781e+003, 4.494254e+002
1.026264e+003, 4.462066e+002
1.026746e+003, 4.430962e+002
1.027228e+003, 4.416012e+002
1.027710e+003, 4.411003e+002
1.028192e+003, 4.401255e+002
1.028674e+003, 4.386141e+002
1.029156e+003, 4.371260e+002
1.029638e+003, 4.356100e+002
1.030120e+003, 4.343137e+002
1.030603e+003, 4.333232e+002
1.031085e+003, 4.324989e+002
1.031567e+003, 4.316494e+002
1.032049e+003, 4.309711e+002
1.032531e+003, 4.310854e+002
1.033013e+003, 4.323471e+002
1.033495e+003, 4.327835e+002
1.033977e+003, 4.320780e+002
1.034460e+003, 4.312343e+002
1.034942e+003, 4.305912e+002
1.035424e+003, 4.297373e+002
1.035906e+003, 4.281099e+002
1.036388e+003, 4.261205e+002
1.036870e+003, 4.249969e+002
1.037352e+003, 4.250694e+002
1.037834e+003, 4.248759e+002
1.038317e+003, 4.242863e+002
1.038799e+003, 4.236289e+002
1.039281e+003, 4.228627e+002
1.039763e+003, 4.221674e+002
1.040245e+003, 4.215345e+002
1.040727e+003, 4.210914e+002
1.041209e+003, 4.212464e+002
1.041691e+003, 4.222556e+002
1.042173e+003, 4.230421e+002
1.042656e+003, 4.240468e+002
1.043138e+003, 4.242175e+002
1.043620e+003, 4.226678e+002
1.044102e+003, 4.207723e+002
1.044584e+003, 4.193984e+002
1.045066e+003, 4.185077e+002
1.045548e+003, 4.180081e+002
1.046030e+003, 4.180226e+002
1.046512e+003, 4.179041e+002
1.046995e+003, 4.173385e+002
1.047477e+003, 4.169557e+002
1.047959e+003, 4.171988e+002
1.048441e+003, 4.174605e+002
1.048923e+003, 4.171230e+002
1.049405e+003, 4.164586e+002
1.049887e+003, 4.162142e+002
1.050369e+003, 4.166046e+002
1.050852e+003, 4.167426e+002
1.051334e+003, 4.162456e+002
1.051816e+003, 4.157539e+002
1.052298e+003, 4.154234e+002
1.052780e+003, 4.152430e+002
1.053262e+003, 4.153534e+002
1.053744e+003, 4.155602e+002
1.054226e+003, 4.153987e+002
1.054708e+003, 4.147339e+002
1.055191e+003, 4.142079e+002
1.055673e+003, 4.142144e+002
1.056155e+003, 4.140983e+002
1.056637e+003, 4.131552e+002
1.057119e+003, 4.123934e+002
1.057601e+003, 4.130277e+002
1.058083e+003, 4.143759e+002
1.058565e+003, 4.148902e+002
1.059047e+003, 4.142378e+002
1.059530e+003, 4.135904e+002
1.060012e+003, 4.134493e+002
1.060494e+003, 4.132400e+002
1.060976e+003, 4.124778e+002
1.061458e+003, 4.117739e+002
1.061940e+003, 4.117383e+002
1.062422e+003, 4.121076e+002
1.062904e+003, 4.123222e+002
1.063387e+003, 4.122745e+002
1.063869e+003, 4.121763e+002
1.064351e+003, 4.123027e+002
1.064833e+003, 4.121411e+002
1.065315e+003, 4.110429e+002
1.065797e+003, 4.099548e+002
1.066279e+003, 4.097611e+002
1.066761e+003, 4.101234e+002
1.067244e+003, 4.102960e+002
1.067726e+003, 4.101739e+002
1.068208e+003, 4.103864e+002
1.068690e+003, 4.119725e+002
1.069172e+003, 4.128924e+002
1.069654e+003, 4.114432e+002
1.070136e+003, 4.097002e+002
1.070618e+003, 4.094115e+002
1.071100e+003, 4.099774e+002
1.071583e+003, 4.103057e+002
1.072065e+003, 4.102136e+002
1.072547e+003, 4.100406e+002
1.073029e+003, 4.097802e+002
1.073511e+003, 4.097018e+002
1.073993e+003, 4.101285e+002
1.074475e+003, 4.105899e+002
1.074957e+003, 4.107200e+002
1.075439e+003, 4.106461e+002
1.075922e+003, 4.104525e+002
1.076404e+003, 4.102465e+002
1.076886e+003, 4.104751e+002
1.077368e+003, 4.116386e+002
1.077850e+003, 4.124950e+002
1.078332e+003, 4.122405e+002
1.078814e+003, 4.117110e+002
1.079297e+003, 4.115607e+002
1.079779e+003, 4.114777e+002
1.080261e+003, 4.107635e+002
1.080743e+003, 4.096206e+002
1.081225e+003, 4.092337e+002
1.081707e+003, 4.102249e+002
1.082189e+003, 4.112276e+002
1.082671e+003, 4.117340e+002
1.083153e+003, 4.119197e+002
1.083635e+003, 4.116977e+002
1.084118e+003, 4.113593e+002
1.084600e+003, 4.112081e+002
1.085082e+003, 4.112437e+002
1.085564e+003, 4.114196e+002
1.086046e+003, 4.118338e+002
1.086528e+003, 4.117694e+002
1.087010e+003, 4.103860e+002
1.087492e+003, 4.090898e+002
1.087975e+003, 4.087265e+002
1.088457e+003, 4.087848e+002
1.088939e+003, 4.088797e+002
1.089421e+003, 4.088949e+002
1.089903e+003, 4.086693e+002
1.090385e+003, 4.081419e+002
1.090867e+003, 4.077086e+002
1.091349e+003, 4.076422e+002
1.091832e+003, 4.075473e+002
1.092314e+003, 4.071080e+002
1.092796e+003, 4.066873e+002
1.093278e+003, 4.067934e+002
1.093760e+003, 4.070777e+002
1.094242e+003, 4.067830e+002
1.094724e+003, 4.057935e+002
1.095206e+003, 4.049147e+002
1.095688e+003, 4.042768e+002
1.096171e+003, 4.039688e+002
1.096653e+003, 4.043229e+002
1.097135e+003, 4.047054e+002
1.097617e+003, 4.047440e+002
1.098099e+003, 4.044910e+002
1.098581e+003, 4.040464e+002
1.099063e+003, 4.034285e+002
1.099545e+003, 4.026689e+002
1.100027e+003, 4.014594e+002
1.100510e+003, 4.006331e+002
1.100992e+003, 4.007274e+002
1.101474e+003, 4.008792e+002
1.101956e+003, 4.005228e+002
1.102438e+003, 4.000387e+002
1.102920e+003, 3.998673e+002
1.103402e+003, 4.000034e+002
1.103884e+003, 4.002525e+002
1.104367e+003, 4.007032e+002
1.104849e+003, 4.009653e+002
1.105331e+003, 4.008354e+002
1.105813e+003, 4.006755e+002
1.106295e+003, 4.006316e+002
1.106777e+003, 4.006113e+002
1.107259e+003, 4.004429e+002
1.107741e+003, 4.002375e+002
1.108224e+003, 4.004197e+002
1.108706e+003, 4.012888e+002
1.109188e+003, 4.014614e+002
1.109670e+003, 3.999091e+002
1.110152e+003, 3.989128e+002
1.110634e+003, 3.994257e+002
1.111116e+003, 4.002197e+002
1.111598e+003, 4.007691e+002
1.112080e+003, 4.009315e+002
1.112563e+003, 4.002306e+002
1.113045e+003, 3.984753e+002
1.113527e+003, 3.976264e+002
1.114009e+003, 3.983345e+002
1.114491e+003, 3.988903e+002
1.114973e+003, 3.990320e+002
1.115455e+003, 3.991328e+002
1.115937e+003, 3.993672e+002
1.116419e+003, 3.996624e+002
1.116902e+003, 3.999803e+002
1.117384e+003, 4.002975e+002
1.117866e+003, 4.003091e+002
1.118348e+003, 3.997881e+002
1.118830e+003, 3.994952e+002
1.119312e+003, 3.995392e+002
1.119794e+003, 3.996339e+002
1.120276e+003, 3.996292e+002
1.120759e+003, 3.997275e+002
1.121241e+003, 4.002137e+002
1.121723e+003, 4.009052e+002
1.122205e+003, 4.011241e+002
1.122687e+003, 4.007091e+002
1.123169e+003, 4.006113e+002
1.123651e+003, 4.010382e+002
1.124133e+003, 4.010411e+002
1.124615e+003, 4.002704e+002
1.125098e+003, 3.993530e+002
1.125580e+003, 3.986695e+002
1.126062e+003, 3.982242e+002
1.126544e+003, 3.980767e+002
1.127026e+003, 3.982188e+002
1.127508e+003, 3.981810e+002
1.127990e+003, 3.979503e+002
1.128472e+003, 3.976678e+002
1.128954e+003, 3.973613e+002
1.129437e+003, 3.969341e+002
1.129919e+003, 3.963139e+002
1.130401e+003, 3.956850e+002
1.130883e+003, 3.953038e+002
1.131365e+003, 3.950576e+002
1.131847e+003, 3.943290e+002
1.132329e+003, 3.931727e+002
1.132811e+003, 3.929257e+002
1.133294e+003, 3.936494e+002
1.133776e+003, 3.937459e+002
1.134258e+003, 3.926791e+002
1.134740e+003, 3.919557e+002
1.135222e+003, 3.929204e+002
1.135704e+003, 3.946597e+002
1.136186e+003, 3.954337e+002
1.136668e+003, 3.954288e+002
1.137151e+003, 3.953902e+002
1.137633e+003, 3.952830e+002
1.138115e+003, 3.946090e+002
1.138597e+003, 3.934018e+002
1.139079e+003, 3.927120e+002
1.139561e+003, 3.931407e+002
1.140043e+003, 3.937521e+002
1.140525e+003, 3.932416e+002
1.141007e+003, 3.922791e+002
1.141490e+003, 3.921371e+002
1.141972e+003, 3.925535e+002
1.142454e+003, 3.931273e+002
1.142936e+003, 3.936711e+002
1.143418e+003, 3.936820e+002
1.143900e+003, 3.930704e+002
1.144382e+003, 3.927467e+002
1.144864e+003, 3.936459e+002
1.145346e+003, 3.946374e+002
1.145829e+003, 3.942914e+002
1.146311e+003, 3.934951e+002
1.146793e+003, 3.934509e+002
1.147275e+003, 3.938231e+002
1.147757e+003, 3.937545e+002
1.148239e+003, 3.932022e+002
1.148721e+003, 3.928161e+002
1.149203e+003, 3.929383e+002
1.149686e+003, 3.930381e+002
1.150168e+003, 3.925610e+002
1.150650e+003, 3.921848e+002
1.151132e+003, 3.927399e+002
1.151614e+003, 3.934167e+002
1.152096e+003, 3.931964e+002
1.152578e+003, 3.923178e+002
1.153060e+003, 3.915758e+002
1.153542e+003, 3.911534e+002
1.154025e+003, 3.907131e+002
1.154507e+003, 3.898024e+002
1.154989e+003, 3.893242e+002
1.155471e+003, 3.901799e+002
1.155953e+003, 3.909339e+002
1.156435e+003, 3.904534e+002
1.156917e+003, 3.894141e+002
1.157399e+003, 3.886705e+002
1.157881e+003, 3.882986e+002
1.158364e+003, 3.883215e+002
1.158846e+003, 3.892753e+002
1.159328e+003, 3.895996e+002
1.159810e+003, 3.886137e+002
1.160292e+003, 3.877784e+002
1.160774e+003, 3.877763e+002
1.161256e+003, 3.877796e+002
1.161738e+003, 3.870255e+002
1.162221e+003, 3.858595e+002
1.162703e+003, 3.850912e+002
1.163185e+003, 3.847382e+002
1.163667e+003, 3.847057e+002
1.164149e+003, 3.852402e+002
1.164631e+003, 3.853573e+002
1.165113e+003, 3.848143e+002
1.165595e+003, 3.840918e+002
1.166078e+003, 3.833282e+002
1.166560e+003, 3.827610e+002
1.167042e+003, 3.827397e+002
1.167524e+003, 3.831143e+002
1.168006e+003, 3.831605e+002
1.168488e+003, 3.828633e+002
1.168970e+003, 3.826124e+002
1.169452e+003, 3.824227e+002
1.169934e+003, 3.824478e+002
1.170417e+003, 3.827370e+002
1.170899e+003, 3.830960e+002
1.171381e+003, 3.834075e+002
1.171863e+003, 3.835478e+002
1.172345e+003, 3.831903e+002
1.172827e+003, 3.825141e+002
1.173309e+003, 3.822421e+002
1.173791e+003, 3.822236e+002
1.174273e+003, 3.815452e+002
1.174756e+003, 3.803976e+002
1.175238e+003, 3.803833e+002
1.175720e+003, 3.820965e+002
1.176202e+003, 3.846214e+002
1.176684e+003, 3.879073e+002
1.177166e+003, 3.901390e+002
1.177648e+003, 3.879482e+002
1.178130e+003, 3.840508e+002
1.178613e+003, 3.821393e+002
1.179095e+003, 3.818569e+002
1.179577e+003, 3.822263e+002
1.180059e+003, 3.828016e+002
1.180541e+003, 3.828692e+002
1.181023e+003, 3.820264e+002
1.181505e+003, 3.812607e+002
1.181987e+003, 3.812909e+002
1.182469e+003, 3.814556e+002
1.182952e+003, 3.812848e+002
1.183434e+003, 3.810607e+002
1.183916e+003, 3.810293e+002
1.184398e+003, 3.811857e+002
1.184880e+003, 3.815411e+002
1.185362e+003, 3.820795e+002
1.185844e+003, 3.824277e+002
1.186326e+003, 3.824173e+002
1.186808e+003, 3.823350e+002
1.187291e+003, 3.823811e+002
1.187773e+003, 3.821759e+002
1.188255e+003, 3.811620e+002
1.188737e+003, 3.801609e+002
1.189219e+003, 3.801095e+002
1.189701e+003, 3.806517e+002
1.190183e+003, 3.806397e+002
1.190665e+003, 3.798878e+002
1.191148e+003, 3.795897e+002
1.191630e+003, 3.800038e+002
1.192112e+003, 3.801493e+002
1.192594e+003, 3.798445e+002
1.193076e+003, 3.792601e+002
1.193558e+003, 3.783682e+002
1.194040e+003, 3.775840e+002
1.194522e+003, 3.774740e+002
1.195005e+003, 3.778867e+002
1.195487e+003, 3.782648e+002
1.195969e+003, 3.785984e+002
1.196451e+003, 3.786569e+002
1.196933e+003, 3.784269e+002
1.197415e+003, 3.777812e+002
1.197897e+003, 3.767243e+002
1.198379e+003, 3.760906e+002
1.198861e+003, 3.764373e+002
1.199344e+003, 3.770787e+002
1.199826e+003, 3.770907e+002
1.200308e+003, 3.767348e+002
1.200790e+003, 3.765027e+002
1.201272e+003, 3.763488e+002
1.201754e+003, 3.761488e+002
1.202236e+003, 3.759317e+002
1.202718e+003, 3.758307e+002
1.203200e+003, 3.758749e+002
1.203683e+003, 3.759913e+002
1.204165e+003, 3.762160e+002
1.204647e+003, 3.762813e+002
1.205129e+003, 3.758488e+002
1.205611e+003, 3.753169e+002
1.206093e+003, 3.748089e+002
1.206575e+003, 3.745673e+002
1.207057e+003, 3.752555e+002
1.207540e+003, 3.763708e+002
1.208022e+003, 3.763283e+002
1.208504e+003, 3.746602e+002
1.208986e+003, 3.738645e+002
1.209468e+003, 3.751921e+002
1.209950e+003, 3.764554e+002
1.210432e+003, 3.774193e+002
1.210914e+003, 3.779218e+002
1.211396e+003, 3.777030e+002
1.211879e+003, 3.771306e+002
1.212361e+003, 3.765142e+002
1.212843e+003, 3.758653e+002
1.213325e+003, 3.751962e+002
1.213807e+003, 3.743904e+002
1.214289e+003, 3.742191e+002
1.214771e+003, 3.749113e+002
1.215253e+003, 3.752712e+002
1.215735e+003, 3.749716e+002
1.216218e+003, 3.748318e+002
1.216700e+003, 3.753640e+002
1.217182e+003, 3.758752e+002
1.217664e+003, 3.754046e+002
1.218146e+003, 3.743822e+002
1.218628e+003, 3.741423e+002
1.219110e+003, 3.745844e+002
1.219592e+003, 3.755216e+002
1.220075e+003, 3.766802e+002
1.220557e+003, 3.765762e+002
1.221039e+003, 3.751071e+002
1.221521e+003, 3.740376e+002
1.222003e+003, 3.743572e+002
1.222485e+003, 3.750662e+002
1.222967e+003, 3.752353e+002
1.223449e+003, 3.751767e+002
1.223932e+003, 3.754792e+002
1.224414e+003, 3.755979e+002
1.224896e+003, 3.742207e+002
1.225378e+003, 3.723304e+002
1.225860e+003, 3.722943e+002
1.226342e+003, 3.741241e+002
1.226824e+003, 3.751072e+002
1.227306e+003, 3.738755e+002
1.227788e+003, 3.729859e+002
1.228271e+003, 3.737368e+002
1.228753e+003, 3.744347e+002
1.229235e+003, 3.743536e+002
1.229717e+003, 3.739381e+002
1.230199e+003, 3.732860e+002
1.230681e+003, 3.726819e+002
1.231163e+003, 3.727329e+002
1.231645e+003, 3.734129e+002
1.232127e+003, 3.734608e+002
1.232610e+003, 3.724407e+002
1.233092e+003, 3.722023e+002
1.233574e+003, 3.731290e+002
1.234056e+003, 3.737774e+002
1.234538e+003, 3.737049e+002
1.235020e+003, 3.732254e+002
1.235502e+003, 3.724613e+002
1.235984e+003, 3.719219e+002
1.236467e+003, 3.727860e+002
1.236949e+003, 3.744981e+002
1.237431e+003, 3.745132e+002
1.237913e+003, 3.732066e+002
1.238395e+003, 3.720248e+002
1.238877e+003, 3.712134e+002
1.239359e+003, 3.711611e+002
1.239841e+003, 3.718468e+002
1.240323e+003, 3.722201e+002
1.240806e+003, 3.714939e+002
1.241288e+003, 3.708160e+002
1.241770e+003, 3.715721e+002
1.242252e+003, 3.726019e+002
1.242734e+003, 3.725840e+002
1.243216e+003, 3.723006e+002
1.243698e+003, 3.731318e+002
1.244180e+003, 3.743856e+002
1.244662e+003, 3.741110e+002
1.245145e+003, 3.721563e+002
1.245627e+003, 3.711838e+002
1.246109e+003, 3.729069e+002
1.246591e+003, 3.737711e+002
1.247073e+003, 3.724517e+002
1.247555e+003, 3.711678e+002
1.248037e+003, 3.705743e+002
1.248519e+003, 3.703808e+002
1.249002e+003, 3.704211e+002
1.249484e+003, 3.707109e+002
1.249966e+003, 3.713926e+002
1.250448e+003, 3.724023e+002
1.250930e+003, 3.724888e+002
1.251412e+003, 3.715016e+002
1.251894e+003, 3.713656e+002
1.252376e+003, 3.722658e+002
1.252859e+003, 3.727924e+002
1.253341e+003, 3.725190e+002
1.253823e+003, 3.719333e+002
1.254305e+003, 3.713293e+002
1.254787e+003, 3.709805e+002
1.255269e+003, 3.715367e+002
1.255751e+003, 3.723985e+002
1.256233e+003, 3.724234e+002
1.256715e+003, 3.719433e+002
1.257198e+003, 3.713636e+002
1.257680e+003, 3.708996e+002
1.258162e+003, 3.710245e+002
1.258644e+003, 3.716880e+002
1.259126e+003, 3.720754e+002
1.259608e+003, 3.717904e+002
1.260090e+003, 3.714003e+002
1.260572e+003, 3.709416e+002
1.261054e+003, 3.707418e+002
1.261537e+003, 3.713394e+002
1.262019e+003, 3.718723e+002
1.262501e+003, 3.716897e+002
1.262983e+003, 3.710065e+002
1.263465e+003, 3.699409e+002
1.263947e+003, 3.686531e+002
1.264429e+003, 3.684200e+002
1.264911e+003, 3.697342e+002
1.265394e+003, 3.704256e+002
1.265876e+003, 3.704429e+002
1.266358e+003, 3.698734e+002
1.266840e+003, 3.685952e+002
1.267322e+003, 3.677910e+002
1.267804e+003, 3.681496e+002
1.268286e+003, 3.689439e+002
1.268768e+003, 3.693969e+002
1.269250e+003, 3.694510e+002
1.269733e+003, 3.685277e+002
1.270215e+003, 3.672970e+002
1.270697e+003, 3.677001e+002
1.271179e+003, 3.691964e+002
1.271661e+003, 3.702552e+002
1.272143e+003, 3.706238e+002
1.272625e+003, 3.705511e+002
1.273107e+003, 3.701342e+002
1.273589e+003, 3.699604e+002
1.274072e+003, 3.706737e+002
1.274554e+003, 3.713104e+002
1.275036e+003, 3.712115e+002
1.275518e+003, 3.710797e+002
1.276000e+003, 3.717954e+002
1.276482e+003, 3.723912e+002
1.276964e+003, 3.714289e+002
1.277446e+003, 3.695177e+002
1.277929e+003, 3.686129e+002
1.278411e+003, 3.688394e+002
1.278893e+003, 3.688037e+002
1.279375e+003, 3.684142e+002
1.279857e+003, 3.681166e+002
1.280339e+003, 3.679437e+002
1.280821e+003, 3.680088e+002
1.281303e+003, 3.684098e+002
1.281786e+003, 3.688565e+002
1.282268e+003, 3.690923e+002
##END=



